;Bundle             = 1
;Partition          = 1
;Operator           = 
;Gonio              = ATX-G
;Memo               = 
;IncidentMonochro   = ½Ø¯ÄºØÒ°¼®Ý
;CounterMonochro    = ŽóŒõ½Ø¯Ä
;Attachment         = XY-STAGE
;Filter             = 
;SlitName0          = S1 10*0.5
;SlitName1          = S2 2*0.05
;SlitName2          = ATT 
;SlitName3          = RS 2*0.1
;SlitName4          = GS nothing
;Counter            = SC-70
;KAlpha1            = 1.5403
;KAlpha2            = 1.5434
;KBata              = 0
;Target             = Cu
;KV                 = 50
;mA                 = 300
;AxisName           = 2Theta/Omega
;MeasurementMethod = Continuation
;Start              = 0.2
;Finish             = 6
;Speed              = 2
;FixedTime          = 
;Width              = 0.004
;FullScale         = 872000
;Comment            = 0.35
;SampleName         = 
;Xunit              = deg.
;Yunit              = CPS
0.2000 376422.8
0.2040 380204.6
0.2080 384345.8
0.2120 409828.7
0.2160 414869.7
0.2200 429954.5
0.2240 445524.6
0.2280 469888.9
0.2320 459479.2
0.2360 476838.2
0.2400 487495.2
0.2440 502982.9
0.2480 516042.0
0.2520 520998.4
0.2560 525895.6
0.2600 540489.9
0.2640 549601.2
0.2680 555991.2
0.2720 556667.9
0.2760 559242.2
0.2800 572357.4
0.2840 564403.8
0.2880 600434.8
0.2920 593724.4
0.2960 588715.2
0.3000 589988.1
0.3040 612809.9
0.3080 614493.1
0.3120 617744.1
0.3160 619431.4
0.3200 623342.2
0.3240 621574.5
0.3280 624608.8
0.3320 631699.8
0.3360 628735.2
0.3400 631881.6
0.3440 616944.8
0.3480 638862.6
0.3520 628844.1
0.3560 633961.2
0.3600 628215.1
0.3640 626317.3
0.3680 636731.2
0.3720 635881.2
0.3760 625616.4
0.3800 627242.4
0.3840 629288.2
0.3880 628623.2
0.3920 652969.5
0.3960 647147.2
0.4000 656085.2
0.4040 666771.9
0.4080 678659.6
0.4120 687122.9
0.4160 695312.3
0.4200 712661.8
0.4240 694026.7
0.4280 727324.8
0.4320 700779.3
0.4360 718807.6
0.4400 706989.6
0.4440 706252.7
0.4480 723234.2
0.4520 715123.0
0.4560 717351.7
0.4600 706469.4
0.4640 696588.4
0.4680 699173.4
0.4720 690605.4
0.4760 683586.4
0.4800 681803.8
0.4840 683731.2
0.4880 667210.6
0.4920 668920.2
0.4960 675417.0
0.5000 663550.4
0.5040 650628.8
0.5080 656814.7
0.5120 657774.7
0.5160 644977.8
0.5200 628192.9
0.5240 636361.2
0.5280 622582.1
0.5320 639178.8
0.5360 646400.8
0.5400 636713.2
0.5440 629199.4
0.5480 638891.2
0.5520 639465.2
0.5560 656418.2
0.5600 642905.6
0.5640 644975.6
0.5680 651476.6
0.5720 646361.7
0.5760 668182.2
0.5800 659096.2
0.5840 666148.1
0.5880 664000.8
0.5920 668735.2
0.5960 680396.6
0.6000 660748.8
0.6040 674571.2
0.6080 665655.4
0.6120 661832.4
0.6160 676745.9
0.6200 676908.8
0.6240 670491.2
0.6280 669528.1
0.6320 668580.8
0.6360 675115.7
0.6400 657584.4
0.6440 666044.5
0.6480 662116.8
0.6520 657314.8
0.6560 655188.6
0.6600 650442.7
0.6640 646889.2
0.6680 662143.2
0.6720 629291.3
0.6760 627539.5
0.6800 629320.9
0.6840 618047.5
0.6880 621539.6
0.6920 620617.7
0.6960 599231.6
0.7000 600692.8
0.7040 571722.1
0.7080 582006.9
0.7120 567626.2
0.7160 559836.4
0.7200 549952.2
0.7240 535161.3
0.7280 512002.3
0.7320 502989.2
0.7360 491020.1
0.7400 467481.5
0.7440 466652.7
0.7480 445282.5
0.7520 423211.4
0.7560 402093.9
0.7600 381355.9
0.7640 375891.0
0.7680 344780.4
0.7720 346102.0
0.7760 334011.3
0.7800 322844.2
0.7840 303425.6
0.7880 286918.9
0.7920 272073.0
0.7960 259909.2
0.8000 246325.7
0.8040 236742.2
0.8080 221811.0
0.8120 210755.2
0.8160 201992.9
0.8200 191950.9
0.8240 184159.7
0.8280 173155.5
0.8320 165239.1
0.8360 159320.9
0.8400 151655.8
0.8440 145019.6
0.8480 137079.2
0.8520 131403.8
0.8560 126587.8
0.8600 121650.3
0.8640 114871.5
0.8680 109302.4
0.8720 104896.7
0.8760 100175.5
0.8800 100302.7
0.8840 93267.8
0.8880 89470.6
0.8920 86446.6
0.8960 83427.4
0.9000 81582.3
0.9040 77932.6
0.9080 76415.3
0.9120 70700.4
0.9160 69249.0
0.9200 66903.9
0.9240 62977.3
0.9280 59852.2
0.9320 58638.2
0.9360 56580.8
0.9400 55182.4
0.9440 51428.6
0.9480 51633.4
0.9520 49365.6
0.9560 47847.3
0.9600 47691.7
0.9640 47016.1
0.9680 42801.9
0.9720 43601.0
0.9760 41438.4
0.9800 38972.9
0.9840 37992.1
0.9880 35926.5
0.9920 34382.0
0.9960 32769.4
1.0000 32176.9
1.0040 31390.2
1.0080 31790.5
1.0120 29956.5
1.0160 29214.1
1.0200 29585.3
1.0240 27977.6
1.0280 27088.4
1.0320 26390.3
1.0360 25872.8
1.0400 25329.2
1.0440 24503.0
1.0480 22721.9
1.0520 22361.0
1.0560 20352.8
1.0600 19968.7
1.0640 19681.9
1.0680 18451.9
1.0720 18425.2
1.0760 18435.0
1.0800 17493.2
1.0840 18035.7
1.0880 18468.9
1.0920 17666.0
1.0960 16861.9
1.1000 16293.8
1.1040 15810.7
1.1080 15266.7
1.1120 14325.8
1.1160 13441.0
1.1200 12765.6
1.1240 12585.6
1.1280 11714.2
1.1320 11252.7
1.1360 11347.4
1.1400 11261.2
1.1440 10691.6
1.1480 11109.0
1.1520 11031.7
1.1560 11134.6
1.1600 10495.3
1.1640 10699.5
1.1680 10299.1
1.1720 10308.4
1.1760 9143.3
1.1800 9271.0
1.1840 8294.4
1.1880 7829.0
1.1920 6991.6
1.1960 6974.7
1.2000 6594.1
1.2040 6813.8
1.2080 7050.6
1.2120 6611.0
1.2160 6999.7
1.2200 6923.5
1.2240 6830.7
1.2280 7202.7
1.2320 7041.6
1.2360 6737.9
1.2400 6392.0
1.2440 6518.5
1.2480 6172.3
1.2520 5379.5
1.2560 4789.9
1.2600 4823.5
1.2640 3680.5
1.2680 4058.4
1.2720 3924.3
1.2760 3395.1
1.2800 3697.2
1.2840 3604.9
1.2880 3873.6
1.2920 4125.6
1.2960 4327.3
1.3000 4092.1
1.3040 4537.6
1.3080 4562.6
1.3120 4419.8
1.3160 4218.0
1.3200 3596.6
1.3240 3705.7
1.3280 3311.3
1.3320 3109.9
1.3360 2757.8
1.3400 2456.1
1.3440 2104.5
1.3480 1920.4
1.3520 2104.6
1.3560 1836.8
1.3600 1995.7
1.3640 2531.5
1.3680 2305.5
1.3720 2632.0
1.3760 2824.7
1.3800 2849.9
1.3840 2724.2
1.3880 2766.2
1.3920 2590.2
1.3960 2774.6
1.4000 2322.1
1.4040 2020.8
1.4080 1569.2
1.4120 1577.6
1.4160 1335.1
1.4200 1168.0
1.4240 1009.4
1.4280 1017.7
1.4320 1017.7
1.4360 1076.2
1.4400 1243.2
1.4440 1026.1
1.4480 1343.5
1.4520 1560.9
1.4560 1402.0
1.4600 1468.9
1.4640 1719.7
1.4680 1494.0
1.4720 1627.7
1.4760 1402.0
1.4800 1293.3
1.4840 1076.2
1.4880 1009.4
1.4920 692.1
1.4960 934.2
1.5000 642.1
1.5040 341.8
1.5080 433.5
1.5120 433.5
1.5160 458.5
1.5200 575.3
1.5240 692.2
1.5280 825.7
1.5320 892.5
1.5360 909.2
1.5400 992.7
1.5440 984.3
1.5480 976.0
1.5520 942.6
1.5560 842.4
1.5600 642.1
1.5640 650.4
1.5680 508.6
1.5720 550.3
1.5760 300.1
1.5800 291.8
1.5840 216.7
1.5880 258.4
1.5920 125.0
1.5960 158.4
1.6000 341.8
1.6040 191.7
1.6080 291.8
1.6120 533.6
1.6160 433.5
1.6200 466.9
1.6240 608.7
1.6280 667.1
1.6320 483.6
1.6360 525.3
1.6400 491.9
1.6440 383.5
1.6480 325.1
1.6520 308.4
1.6560 158.4
1.6600 125.0
1.6640 100.0
1.6680 125.0
1.6720 125.0
1.6760 75.0
1.6800 141.7
1.6840 208.4
1.6880 191.7
1.6920 333.4
1.6960 233.4
1.7000 325.1
1.7040 308.4
1.7080 325.1
1.7120 416.8
1.7160 400.2
1.7200 300.1
1.7240 258.4
1.7280 200.0
1.7320 166.7
1.7360 191.7
1.7400 125.0
1.7440 58.3
1.7480 58.3
1.7520 75.0
1.7560 158.4
1.7600 150.0
1.7640 125.0
1.7680 125.0
1.7720 158.4
1.7760 183.4
1.7800 183.4
1.7840 191.7
1.7880 166.7
1.7920 283.4
1.7960 208.4
1.8000 241.7
1.8040 183.4
1.8080 133.4
1.8120 141.7
1.8160 175.0
1.8200 125.0
1.8240 108.3
1.8280 91.7
1.8320 158.4
1.8360 108.3
1.8400 116.7
1.8440 133.4
1.8480 150.0
1.8520 116.7
1.8560 208.4
1.8600 66.7
1.8640 141.7
1.8680 116.7
1.8720 150.0
1.8760 141.7
1.8800 175.0
1.8840 133.4
1.8880 41.7
1.8920 66.7
1.8960 125.0
1.9000 108.3
1.9040 116.7
1.9080 116.7
1.9120 141.7
1.9160 100.0
1.9200 133.4
1.9240 183.4
1.9280 208.4
1.9320 250.1
1.9360 166.7
1.9400 183.4
1.9440 191.7
1.9480 208.4
1.9520 108.3
1.9560 166.7
1.9600 216.7
1.9640 25.0
1.9680 100.0
1.9720 66.7
1.9760 116.7
1.9800 91.7
1.9840 133.4
1.9880 133.4
1.9920 158.4
1.9960 116.7
2.0000 258.4
2.0040 141.7
2.0080 175.0
2.0120 250.1
2.0160 250.1
2.0200 191.7
2.0240 241.7
2.0280 250.1
2.0320 166.7
2.0360 133.4
2.0400 108.3
2.0440 166.7
2.0480 25.0
2.0520 108.3
2.0560 58.3
2.0600 83.3
2.0640 50.0
2.0680 50.0
2.0720 100.0
2.0760 125.0
2.0800 141.7
2.0840 183.4
2.0880 158.4
2.0920 241.7
2.0960 233.4
2.1000 308.4
2.1040 316.8
2.1080 233.4
2.1120 383.5
2.1160 258.4
2.1200 233.4
2.1240 141.7
2.1280 116.7
2.1320 108.3
2.1360 133.4
2.1400 50.0
2.1440 33.3
2.1480 58.3
2.1520 83.3
2.1560 100.0
2.1600 75.0
2.1640 141.7
2.1680 150.0
2.1720 166.7
2.1760 283.4
2.1800 300.1
2.1840 383.5
2.1880 316.8
2.1920 341.8
2.1960 291.8
2.2000 300.1
2.2040 316.8
2.2080 233.4
2.2120 216.7
2.2160 133.4
2.2200 83.3
2.2240 83.3
2.2280 66.7
2.2320 75.0
2.2360 66.7
2.2400 50.0
2.2440 83.3
2.2480 116.7
2.2520 208.4
2.2560 200.0
2.2600 250.1
2.2640 291.8
2.2680 283.4
2.2720 333.5
2.2760 391.8
2.2800 433.5
2.2840 433.5
2.2880 266.7
2.2920 400.2
2.2960 275.1
2.3000 125.0
2.3040 225.1
2.3080 166.7
2.3120 108.3
2.3160 116.7
2.3200 41.7
2.3240 50.0
2.3280 83.3
2.3320 41.7
2.3360 108.3
2.3400 100.0
2.3440 150.0
2.3480 208.4
2.3520 316.8
2.3560 400.2
2.3600 308.4
2.3640 291.8
2.3680 325.1
2.3720 400.2
2.3760 400.2
2.3800 358.5
2.3840 300.1
2.3880 291.8
2.3920 250.1
2.3960 133.4
2.4000 100.0
2.4040 75.0
2.4080 66.7
2.4120 33.3
2.4160 50.0
2.4200 58.3
2.4240 83.3
2.4280 216.7
2.4320 141.7
2.4360 158.4
2.4400 283.4
2.4440 275.1
2.4480 375.2
2.4520 250.1
2.4560 508.6
2.4600 341.8
2.4640 266.7
2.4680 308.4
2.4720 300.1
2.4760 308.4
2.4800 208.4
2.4840 141.7
2.4880 133.4
2.4920 100.0
2.4960 100.0
2.5000 33.3
2.5040 58.3
2.5080 50.0
2.5120 116.7
2.5160 133.4
2.5200 141.7
2.5240 291.8
2.5280 233.4
2.5320 333.4
2.5360 300.1
2.5400 300.1
2.5440 300.1
2.5480 341.8
2.5520 391.8
2.5560 308.4
2.5600 416.8
2.5640 258.4
2.5680 291.8
2.5720 250.1
2.5760 116.7
2.5800 91.7
2.5840 150.0
2.5880 108.3
2.5920 75.0
2.5960 50.0
2.6000 41.7
2.6040 141.7
2.6080 108.3
2.6120 200.0
2.6160 275.1
2.6200 208.4
2.6240 325.1
2.6280 425.2
2.6320 333.5
2.6360 341.8
2.6400 341.8
2.6440 425.2
2.6480 300.1
2.6520 200.0
2.6560 375.1
2.6600 258.4
2.6640 150.0
2.6680 183.4
2.6720 150.0
2.6760 91.7
2.6800 50.0
2.6840 100.0
2.6880 75.0
2.6920 175.0
2.6960 75.0
2.7000 100.0
2.7040 225.1
2.7080 225.1
2.7120 225.1
2.7160 291.8
2.7200 325.1
2.7240 366.8
2.7280 508.6
2.7320 450.2
2.7360 366.8
2.7400 291.8
2.7440 316.8
2.7480 283.4
2.7520 300.1
2.7560 183.4
2.7600 175.0
2.7640 133.4
2.7680 100.0
2.7720 25.0
2.7760 125.0
2.7800 83.3
2.7840 116.7
2.7880 141.7
2.7920 191.7
2.7960 266.7
2.8000 275.1
2.8040 266.7
2.8080 316.8
2.8120 383.5
2.8160 366.8
2.8200 416.8
2.8240 416.8
2.8280 316.8
2.8320 341.8
2.8360 366.8
2.8400 241.7
2.8440 325.1
2.8480 216.7
2.8520 166.7
2.8560 100.0
2.8600 91.7
2.8640 91.7
2.8680 75.0
2.8720 83.3
2.8760 125.0
2.8800 141.7
2.8840 116.7
2.8880 200.0
2.8920 225.1
2.8960 391.8
2.9000 333.4
2.9040 533.6
2.9080 500.3
2.9120 391.8
2.9160 450.2
2.9200 383.5
2.9240 425.2
2.9280 308.4
2.9320 300.1
2.9360 266.7
2.9400 258.4
2.9440 175.0
2.9480 100.0
2.9520 83.3
2.9560 41.7
2.9600 133.4
2.9640 116.7
2.9680 141.7
2.9720 191.7
2.9760 241.7
2.9800 325.1
2.9840 341.8
2.9880 316.8
2.9920 483.6
2.9960 383.5
3.0000 450.2
3.0040 408.5
3.0080 391.8
3.0120 275.1
3.0160 441.9
3.0200 300.1
3.0240 250.1
3.0280 225.1
3.0320 233.4
3.0360 150.0
3.0400 175.0
3.0440 108.3
3.0480 108.3
3.0520 75.0
3.0560 66.7
3.0600 158.4
3.0640 150.0
3.0680 275.1
3.0720 216.7
3.0760 291.8
3.0800 275.1
3.0840 308.4
3.0880 375.1
3.0920 358.5
3.0960 433.5
3.1000 433.5
3.1040 416.8
3.1080 400.2
3.1120 316.8
3.1160 283.4
3.1200 266.7
3.1240 225.1
3.1280 250.1
3.1320 58.3
3.1360 100.0
3.1400 66.7
3.1440 116.7
3.1480 158.4
3.1520 116.7
3.1560 200.0
3.1600 158.4
3.1640 291.8
3.1680 316.8
3.1720 358.5
3.1760 358.5
3.1800 375.2
3.1840 416.8
3.1880 450.2
3.1920 466.9
3.1960 316.8
3.2000 425.2
3.2040 350.1
3.2080 258.4
3.2120 300.1
3.2160 158.4
3.2200 141.7
3.2240 116.7
3.2280 66.7
3.2320 125.0
3.2360 166.7
3.2400 158.4
3.2440 183.4
3.2480 216.7
3.2520 241.7
3.2560 183.4
3.2600 258.4
3.2640 325.1
3.2680 366.8
3.2720 341.8
3.2760 500.3
3.2800 425.2
3.2840 441.9
3.2880 333.5
3.2920 216.7
3.2960 391.8
3.3000 250.1
3.3040 233.4
3.3080 183.4
3.3120 141.7
3.3160 100.0
3.3200 108.3
3.3240 133.4
3.3280 108.3
3.3320 116.7
3.3360 133.4
3.3400 241.7
3.3440 250.1
3.3480 283.4
3.3520 316.8
3.3560 383.5
3.3600 400.2
3.3640 400.2
3.3680 375.1
3.3720 416.8
3.3760 400.2
3.3800 350.1
3.3840 291.8
3.3880 216.7
3.3920 158.4
3.3960 241.7
3.4000 158.4
3.4040 125.0
3.4080 116.7
3.4120 133.4
3.4160 75.0
3.4200 108.3
3.4240 141.7
3.4280 166.7
3.4320 158.4
3.4360 183.4
3.4400 291.8
3.4440 275.1
3.4480 375.1
3.4520 333.4
3.4560 383.5
3.4600 358.5
3.4640 408.5
3.4680 341.8
3.4720 300.1
3.4760 233.4
3.4800 233.4
3.4840 258.4
3.4880 216.7
3.4920 175.0
3.4960 175.0
3.5000 100.0
3.5040 66.7
3.5080 141.7
3.5120 158.4
3.5160 200.0
3.5200 191.7
3.5240 241.7
3.5280 216.7
3.5320 241.7
3.5360 266.7
3.5400 358.5
3.5440 450.2
3.5480 433.5
3.5520 325.1
3.5560 375.1
3.5600 350.1
3.5640 366.8
3.5680 308.4
3.5720 216.7
3.5760 191.7
3.5800 141.7
3.5840 141.7
3.5880 158.4
3.5920 91.7
3.5960 100.0
3.6000 125.0
3.6040 125.0
3.6080 200.0
3.6120 158.4
3.6160 275.1
3.6200 175.0
3.6240 358.5
3.6280 266.7
3.6320 341.8
3.6360 283.4
3.6400 341.8
3.6440 408.5
3.6480 266.7
3.6520 225.1
3.6560 300.1
3.6600 291.8
3.6640 241.7
3.6680 216.7
3.6720 216.7
3.6760 266.7
3.6800 116.7
3.6840 125.0
3.6880 150.0
3.6920 83.3
3.6960 175.0
3.7000 175.0
3.7040 141.7
3.7080 208.4
3.7120 200.0
3.7160 250.1
3.7200 241.7
3.7240 358.5
3.7280 141.7
3.7320 300.1
3.7360 341.8
3.7400 366.8
3.7440 258.4
3.7480 275.1
3.7520 233.4
3.7560 233.4
3.7600 175.0
3.7640 166.7
3.7680 183.4
3.7720 158.4
3.7760 83.3
3.7800 116.7
3.7840 158.4
3.7880 100.0
3.7920 133.4
3.7960 175.0
3.8000 158.4
3.8040 208.4
3.8080 175.0
3.8120 375.1
3.8160 325.1
3.8200 241.7
3.8240 233.4
3.8280 208.4
3.8320 225.1
3.8360 275.1
3.8400 258.4
3.8440 200.0
3.8480 158.4
3.8520 175.0
3.8560 125.0
3.8600 141.7
3.8640 158.4
3.8680 191.7
3.8720 83.3
3.8760 183.4
3.8800 91.7
3.8840 108.3
3.8880 150.0
3.8920 175.0
3.8960 216.7
3.9000 266.7
3.9040 283.4
3.9080 308.4
3.9120 266.7
3.9160 291.8
3.9200 275.1
3.9240 266.7
3.9280 241.7
3.9320 266.7
3.9360 225.1
3.9400 183.4
3.9440 191.7
3.9480 133.4
3.9520 83.3
3.9560 133.4
3.9600 83.3
3.9640 125.0
3.9680 108.3
3.9720 108.3
3.9760 225.1
3.9800 183.4
3.9840 158.4
3.9880 200.0
3.9920 166.7
3.9960 250.1
4.0000 216.7
4.0040 233.4
4.0080 233.4
4.0120 241.7
4.0160 341.8
4.0200 158.4
4.0240 216.7
4.0280 241.7
4.0320 125.0
4.0360 191.7
4.0400 141.7
4.0440 75.0
4.0480 100.0
4.0520 58.3
4.0560 58.3
4.0600 75.0
4.0640 125.0
4.0680 150.0
4.0720 141.7
4.0760 166.7
4.0800 208.4
4.0840 108.3
4.0880 233.4
4.0920 166.7
4.0960 241.7
4.1000 191.7
4.1040 258.4
4.1080 266.7
4.1120 233.4
4.1160 200.0
4.1200 141.7
4.1240 116.7
4.1280 133.4
4.1320 141.7
4.1360 100.0
4.1400 41.7
4.1440 150.0
4.1480 133.4
4.1520 125.0
4.1560 91.7
4.1600 83.3
4.1640 166.7
4.1680 116.7
4.1720 141.7
4.1760 133.4
4.1800 216.7
4.1840 183.4
4.1880 158.4
4.1920 141.7
4.1960 250.1
4.2000 291.8
4.2040 200.0
4.2080 175.0
4.2120 183.4
4.2160 100.0
4.2200 125.0
4.2240 33.3
4.2280 100.0
4.2320 50.0
4.2360 100.0
4.2400 50.0
4.2440 75.0
4.2480 91.7
4.2520 141.7
4.2560 100.0
4.2600 125.0
4.2640 133.4
4.2680 141.7
4.2720 158.4
4.2760 116.7
4.2800 191.7
4.2840 183.4
4.2880 175.0
4.2920 233.4
4.2960 133.4
4.3000 133.4
4.3040 91.7
4.3080 100.0
4.3120 91.7
4.3160 66.7
4.3200 75.0
4.3240 33.3
4.3280 41.7
4.3320 41.7
4.3360 41.7
4.3400 83.3
4.3440 58.3
4.3480 91.7
4.3520 158.4
4.3560 91.7
4.3600 133.4
4.3640 100.0
4.3680 141.7
4.3720 100.0
4.3760 91.7
4.3800 150.0
4.3840 125.0
4.3880 125.0
4.3920 125.0
4.3960 141.7
4.4000 116.7
4.4040 66.7
4.4080 25.0
4.4120 66.7
4.4160 50.0
4.4200 33.3
4.4240 16.7
4.4280 58.3
4.4320 66.7
4.4360 58.3
4.4400 50.0
4.4440 75.0
4.4480 66.7
4.4520 83.3
4.4560 116.7
4.4600 133.4
4.4640 125.0
4.4680 108.3
4.4720 108.3
4.4760 66.7
4.4800 83.3
4.4840 91.7
4.4880 83.3
4.4920 108.3
4.4960 33.3
4.5000 75.0
4.5040 50.0
4.5080 66.7
4.5120 41.7
4.5160 33.3
4.5200 41.7
4.5240 33.3
4.5280 33.3
4.5320 66.7
4.5360 50.0
4.5400 100.0
4.5440 66.7
4.5480 41.7
4.5520 33.3
4.5560 66.7
4.5600 116.7
4.5640 158.4
4.5680 75.0
4.5720 50.0
4.5760 58.3
4.5800 83.3
4.5840 58.3
4.5880 25.0
4.5920 33.3
4.5960 50.0
4.6000 8.3
4.6040 8.3
4.6080 25.0
4.6120 16.7
4.6160 33.3
4.6200 33.3
4.6240 58.3
4.6280 16.7
4.6320 58.3
4.6360 66.7
4.6400 83.3
4.6440 50.0
4.6480 41.7
4.6520 50.0
4.6560 41.7
4.6600 50.0
4.6640 58.3
4.6680 91.7
4.6720 33.3
4.6760 41.7
4.6800 75.0
4.6840 66.7
4.6880 41.7
4.6920 25.0
4.6960 66.7
4.7000 16.7
4.7040 16.7
4.7080 8.3
4.7120 25.0
4.7160 50.0
4.7200 50.0
4.7240 41.7
4.7280 16.7
4.7320 50.0
4.7360 41.7
4.7400 33.3
4.7440 41.7
4.7480 58.3
4.7520 33.3
4.7560 33.3
4.7600 33.3
4.7640 33.3
4.7680 33.3
4.7720 25.0
4.7760 8.3
4.7800 41.7
4.7840 0.0
4.7880 16.7
4.7920 8.3
4.7960 16.7
4.8000 25.0
4.8040 8.3
4.8080 16.7
4.8120 33.3
4.8160 33.3
4.8200 50.0
4.8240 58.3
4.8280 50.0
4.8320 16.7
4.8360 16.7
4.8400 58.3
4.8440 41.7
4.8480 25.0
4.8520 16.7
4.8560 50.0
4.8600 25.0
4.8640 41.7
4.8680 8.3
4.8720 25.0
4.8760 25.0
4.8800 25.0
4.8840 8.3
4.8880 0.0
4.8920 16.7
4.8960 8.3
4.9000 16.7
4.9040 25.0
4.9080 16.7
4.9120 33.3
4.9160 33.3
4.9200 16.7
4.9240 25.0
4.9280 50.0
4.9320 33.3
4.9360 33.3
4.9400 8.3
4.9440 25.0
4.9480 16.7
4.9520 41.7
4.9560 33.3
4.9600 16.7
4.9640 16.7
4.9680 8.3
4.9720 8.3
4.9760 8.3
4.9800 25.0
4.9840 8.3
4.9880 16.7
4.9920 16.7
4.9960 25.0
5.0000 25.0
5.0040 50.0
5.0080 25.0
5.0120 33.3
5.0160 25.0
5.0200 33.3
5.0240 50.0
5.0280 16.7
5.0320 8.3
5.0360 8.3
5.0400 8.3
5.0440 33.3
5.0480 8.3
5.0520 0.0
5.0560 0.0
5.0600 0.0
5.0640 16.7
5.0680 16.7
5.0720 25.0
5.0760 8.3
5.0800 25.0
5.0840 8.3
5.0880 8.3
5.0920 25.0
5.0960 25.0
5.1000 16.7
5.1040 16.7
5.1080 8.3
5.1120 41.7
5.1160 8.3
5.1200 0.0
5.1240 25.0
5.1280 25.0
5.1320 16.7
5.1360 0.0
5.1400 16.7
5.1440 0.0
5.1480 0.0
5.1520 16.7
5.1560 16.7
5.1600 8.3
5.1640 16.7
5.1680 0.0
5.1720 16.7
5.1760 0.0
5.1800 8.3
5.1840 8.3
5.1880 25.0
5.1920 8.3
5.1960 0.0
5.2000 8.3
5.2040 33.3
5.2080 8.3
5.2120 50.0
5.2160 8.3
5.2200 8.3
5.2240 0.0
5.2280 0.0
5.2320 8.3
5.2360 0.0
5.2400 8.3
5.2440 8.3
5.2480 16.7
5.2520 8.3
5.2560 8.3
5.2600 0.0
5.2640 0.0
5.2680 8.3
5.2720 8.3
5.2760 16.7
5.2800 0.0
5.2840 0.0
5.2880 8.3
5.2920 0.0
5.2960 25.0
5.3000 0.0
5.3040 16.7
5.3080 0.0
5.3120 8.3
5.3160 8.3
5.3200 8.3
5.3240 8.3
5.3280 0.0
5.3320 16.7
5.3360 0.0
5.3400 0.0
5.3440 8.3
5.3480 0.0
5.3520 0.0
5.3560 0.0
5.3600 0.0
5.3640 0.0
5.3680 8.3
5.3720 8.3
5.3760 0.0
5.3800 25.0
5.3840 8.3
5.3880 0.0
5.3920 25.0
5.3960 0.0
5.4000 8.3
5.4040 8.3
5.4080 0.0
5.4120 0.0
5.4160 0.0
5.4200 0.0
5.4240 16.7
5.4280 8.3
5.4320 8.3
5.4360 0.0
5.4400 8.3
5.4440 16.7
5.4480 16.7
5.4520 0.0
5.4560 0.0
5.4600 0.0
5.4640 16.7
5.4680 0.0
5.4720 25.0
5.4760 0.0
5.4800 0.0
5.4840 0.0
5.4880 8.3
5.4920 8.3
5.4960 0.0
5.5000 8.3
5.5040 0.0
5.5080 8.3
5.5120 0.0
5.5160 0.0
5.5200 0.0
5.5240 16.7
5.5280 0.0
5.5320 16.7
5.5360 0.0
5.5400 8.3
5.5440 0.0
5.5480 0.0
5.5520 16.7
5.5560 0.0
5.5600 16.7
5.5640 16.7
5.5680 8.3
5.5720 16.7
5.5760 0.0
5.5800 16.7
5.5840 0.0
5.5880 8.3
5.5920 0.0
5.5960 16.7
5.6000 0.0
5.6040 0.0
5.6080 0.0
5.6120 0.0
5.6160 8.3
5.6200 0.0
5.6240 25.0
5.6280 8.3
5.6320 0.0
5.6360 25.0
5.6400 8.3
5.6440 0.0
5.6480 0.0
5.6520 8.3
5.6560 8.3
5.6600 16.7
5.6640 0.0
5.6680 8.3
5.6720 16.7
5.6760 8.3
5.6800 8.3
5.6840 8.3
5.6880 0.0
5.6920 33.3
5.6960 0.0
5.7000 16.7
5.7040 16.7
5.7080 0.0
5.7120 0.0
5.7160 0.0
5.7200 8.3
5.7240 8.3
5.7280 8.3
5.7320 8.3
5.7360 16.7
5.7400 8.3
5.7440 8.3
5.7480 0.0
5.7520 16.7
5.7560 0.0
5.7600 0.0
5.7640 8.3
5.7680 0.0
5.7720 0.0
5.7760 0.0
5.7800 8.3
5.7840 0.0
5.7880 0.0
5.7920 0.0
5.7960 0.0
5.8000 0.0
5.8040 0.0
5.8080 8.3
5.8120 0.0
5.8160 8.3
5.8200 16.7
5.8240 8.3
5.8280 8.3
5.8320 0.0
5.8360 0.0
5.8400 8.3
5.8440 8.3
5.8480 8.3
5.8520 0.0
5.8560 0.0
5.8600 0.0
5.8640 0.0
5.8680 8.3
5.8720 8.3
5.8760 8.3
5.8800 25.0
5.8840 0.0
5.8880 0.0
5.8920 0.0
5.8960 16.7
5.9000 8.3
5.9040 8.3
5.9080 16.7
5.9120 8.3
5.9160 0.0
5.9200 8.3
5.9240 16.7
5.9280 8.3
5.9320 0.0
5.9360 16.7
5.9400 16.7
5.9440 8.3
5.9480 8.3
5.9520 0.0
5.9560 0.0
5.9600 8.3
5.9640 16.7
5.9680 0.0
5.9720 0.0
5.9760 0.0
5.9800 8.3
5.9840 8.3
5.9880 8.3
5.9920 0.0
5.9960 0.0
6.0000 0.0
