;Bundle             = 1
;Partition          = 1
;Operator           = 
;Gonio              = ATX-G
;Memo               = 
;IncidentMonochro   = ½Ø¯ÄºØÒ°¼®Ý
;CounterMonochro    = ŽóŒõ½Ø¯Ä
;Attachment         = XY-STAGE
;Filter             = 
;SlitName0          = S1 10*0.5
;SlitName1          = S2 2*0.05
;SlitName2          = ATT 
;SlitName3          = RS 2*0.1
;SlitName4          = GS nothing
;Counter            = SC-70
;KAlpha1            = 1.5403
;KAlpha2            = 1.5434
;KBata              = 0
;Target             = Cu
;KV                 = 50
;mA                 = 300
;AxisName           = 2Theta/Omega
;MeasurementMethod = Continuation
;Start              = 0.2
;Finish             = 6
;Speed              = 0.2
;FixedTime          = 
;Width              = 0.004
;FullScale         = 660000
;Comment            = 0.35
;SampleName         = 
;Xunit              = deg.
;Yunit              = CPS
0.2000 307988.3
0.2040 322659.1
0.2080 337084.9
0.2120 350851.3
0.2160 365267.9
0.2200 376861.0
0.2240 385187.0
0.2280 398285.2
0.2320 392005.6
0.2360 407004.8
0.2400 421792.5
0.2440 433341.9
0.2480 447548.2
0.2520 458971.8
0.2560 468572.6
0.2600 473983.6
0.2640 488241.7
0.2680 493691.8
0.2720 499094.3
0.2760 504674.5
0.2800 503945.0
0.2840 511080.4
0.2880 521576.7
0.2920 523740.9
0.2960 531492.7
0.3000 526624.1
0.3040 535836.9
0.3080 538925.1
0.3120 542037.7
0.3160 542680.5
0.3200 549473.3
0.3240 550033.6
0.3280 558982.2
0.3320 560928.6
0.3360 568070.3
0.3400 568539.7
0.3440 571119.4
0.3480 575084.1
0.3520 582354.8
0.3560 586357.5
0.3600 591989.5
0.3640 598318.2
0.3680 601692.9
0.3720 602211.0
0.3760 604361.4
0.3800 611908.1
0.3840 614904.3
0.3880 614586.1
0.3920 618912.3
0.3960 624048.4
0.4000 622150.7
0.4040 624545.4
0.4080 630175.2
0.4120 633433.6
0.4160 634297.4
0.4200 641047.9
0.4240 648551.2
0.4280 646473.8
0.4320 644729.3
0.4360 653406.1
0.4400 657610.8
0.4440 652010.6
0.4480 650211.1
0.4520 652305.6
0.4560 647006.6
0.4600 643211.1
0.4640 632732.7
0.4680 626410.3
0.4720 623734.4
0.4760 616888.8
0.4800 605187.1
0.4840 600628.2
0.4880 599288.8
0.4920 600522.6
0.4960 604006.2
0.5000 597811.8
0.5040 600357.6
0.5080 598091.9
0.5120 606589.1
0.5160 600668.4
0.5200 608035.4
0.5240 606672.6
0.5280 605643.9
0.5320 617707.1
0.5360 612137.5
0.5400 620839.7
0.5440 620042.5
0.5480 618014.8
0.5520 621772.2
0.5560 620472.8
0.5600 625899.7
0.5640 624508.4
0.5680 625781.2
0.5720 633224.3
0.5760 629184.6
0.5800 626543.6
0.5840 634532.1
0.5880 624880.5
0.5920 627115.5
0.5960 627209.6
0.6000 632429.2
0.6040 632630.1
0.6080 629368.5
0.6120 628978.4
0.6160 628835.7
0.6200 623989.2
0.6240 626087.9
0.6280 625442.9
0.6320 621886.4
0.6360 620853.4
0.6400 621392.6
0.6440 614833.4
0.6480 612200.9
0.6520 613805.8
0.6560 603950.1
0.6600 606808.9
0.6640 600153.6
0.6680 590838.1
0.6720 590837.1
0.6760 583369.8
0.6800 576053.6
0.6840 578476.8
0.6880 568174.9
0.6920 561497.4
0.6960 556312.6
0.7000 547352.4
0.7040 534583.0
0.7080 528570.4
0.7120 520331.3
0.7160 506507.8
0.7200 497115.2
0.7240 485215.8
0.7280 471050.8
0.7320 455624.5
0.7360 445849.2
0.7400 430786.6
0.7440 417698.9
0.7480 400275.4
0.7520 383928.2
0.7560 373129.5
0.7600 356100.4
0.7640 338341.8
0.7680 322723.1
0.7720 324390.7
0.7760 309683.6
0.7800 293469.7
0.7840 279060.1
0.7880 265704.6
0.7920 251151.7
0.7960 237858.1
0.8000 226825.5
0.8040 215231.3
0.8080 204013.3
0.8120 193194.5
0.8160 184522.5
0.8200 174686.6
0.8240 166474.8
0.8280 158850.6
0.8320 151701.9
0.8360 143886.9
0.8400 137401.3
0.8440 131416.1
0.8480 126369.2
0.8520 119736.8
0.8560 115946.3
0.8600 110170.3
0.8640 106189.8
0.8680 101893.5
0.8720 98432.2
0.8760 94293.6
0.8800 90197.8
0.8840 86659.6
0.8880 83209.9
0.8920 79706.1
0.8960 77595.1
0.9000 74820.4
0.9040 71824.2
0.9080 69725.1
0.9120 68227.1
0.9160 65173.9
0.9200 62786.1
0.9240 60556.9
0.9280 58415.4
0.9320 56227.9
0.9360 54709.4
0.9400 52439.5
0.9440 50577.0
0.9480 49418.0
0.9520 48098.7
0.9560 46476.9
0.9600 45646.0
0.9640 44420.4
0.9680 43342.6
0.9720 42499.1
0.9760 40711.6
0.9800 39308.1
0.9840 38113.8
0.9880 36301.6
0.9920 35168.3
0.9960 34020.0
1.0000 33107.4
1.0040 32001.0
1.0080 31793.2
1.0120 30841.1
1.0160 30042.7
1.0200 29736.6
1.0240 29395.0
1.0280 29070.1
1.0320 28113.6
1.0360 27227.6
1.0400 26787.2
1.0440 25510.5
1.0480 24723.2
1.0520 23597.1
1.0560 22687.5
1.0600 21715.0
1.0640 20996.1
1.0680 20312.5
1.0720 20411.2
1.0760 19800.7
1.0800 19698.6
1.0840 19797.7
1.0880 19474.0
1.0920 19416.7
1.0960 18954.1
1.1000 18809.4
1.1040 18053.9
1.1080 17561.9
1.1120 16735.0
1.1160 15960.3
1.1200 15493.2
1.1240 14384.5
1.1280 14040.8
1.1320 13441.9
1.1360 13193.7
1.1400 13059.9
1.1440 12914.1
1.1480 13055.2
1.1520 13011.4
1.1560 13204.1
1.1600 13170.1
1.1640 12934.6
1.1680 12890.8
1.1720 12558.3
1.1760 12039.6
1.1800 11503.3
1.1840 10929.6
1.1880 10317.0
1.1920 9633.2
1.1960 9194.1
1.2000 8723.9
1.2040 8376.9
1.2080 8359.2
1.2120 8336.6
1.2160 8327.2
1.2200 8431.3
1.2240 8614.7
1.2280 8642.7
1.2320 8763.2
1.2360 8932.7
1.2400 8657.9
1.2440 8558.5
1.2480 8280.4
1.2520 7735.7
1.2560 7086.0
1.2600 6653.4
1.2640 6264.8
1.2680 5810.1
1.2720 5467.1
1.2760 5213.5
1.2800 4983.7
1.2840 5053.5
1.2880 4981.9
1.2920 5394.6
1.2960 5562.3
1.3000 5716.6
1.3040 5746.1
1.3080 5950.1
1.3120 6048.8
1.3160 5817.7
1.3200 5446.0
1.3240 5521.8
1.3280 4955.9
1.3320 4577.2
1.3360 4250.9
1.3400 3760.2
1.3440 3601.5
1.3480 3227.3
1.3520 3047.0
1.3560 3072.9
1.3600 3031.9
1.3640 3140.9
1.3680 3320.4
1.3720 3567.1
1.3760 3709.9
1.3800 3803.0
1.3840 3962.6
1.3880 3862.7
1.3920 4020.6
1.3960 3883.7
1.4000 3615.0
1.4040 3341.4
1.4080 3028.5
1.4120 2653.9
1.4160 2400.0
1.4200 2107.9
1.4240 2026.7
1.4280 1802.5
1.4320 1769.8
1.4360 1714.7
1.4400 1846.8
1.4440 1897.0
1.4480 1975.7
1.4520 2151.4
1.4560 2426.8
1.4600 2550.0
1.4640 2618.7
1.4680 2574.2
1.4720 2521.5
1.4760 2485.5
1.4800 2269.4
1.4840 2028.4
1.4880 1846.8
1.4920 1608.5
1.4960 1309.3
1.5000 1204.0
1.5040 1033.6
1.5080 898.3
1.5120 922.5
1.5160 935.1
1.5200 991.0
1.5240 1068.7
1.5280 1212.3
1.5320 1325.1
1.5360 1516.5
1.5400 1588.4
1.5440 1639.4
1.5480 1649.5
1.5520 1687.1
1.5560 1545.8
1.5600 1476.4
1.5640 1288.4
1.5680 1065.3
1.5720 973.5
1.5760 763.9
1.5800 652.1
1.5840 540.3
1.5880 488.6
1.5920 446.9
1.5960 468.6
1.6000 487.7
1.6040 599.5
1.6080 691.3
1.6120 864.1
1.6160 902.5
1.6200 976.0
1.6240 1063.7
1.6280 1082.0
1.6320 1012.7
1.6360 972.6
1.6400 915.0
1.6440 809.8
1.6480 726.4
1.6520 645.4
1.6560 450.2
1.6600 354.3
1.6640 285.9
1.6680 263.4
1.6720 217.6
1.6760 230.9
1.6800 261.7
1.6840 337.6
1.6880 367.6
1.6920 459.4
1.6960 545.3
1.7000 609.5
1.7040 688.0
1.7080 698.0
1.7120 732.2
1.7160 650.4
1.7200 596.2
1.7240 547.8
1.7280 464.4
1.7320 358.5
1.7360 310.9
1.7400 230.1
1.7440 204.2
1.7480 142.5
1.7520 115.8
1.7560 127.5
1.7600 159.2
1.7640 181.7
1.7680 261.7
1.7720 305.1
1.7760 372.6
1.7800 392.7
1.7840 382.7
1.7880 451.0
1.7920 456.0
1.7960 411.0
1.8000 406.8
1.8040 371.0
1.8080 327.6
1.8120 262.6
1.8160 234.2
1.8200 174.2
1.8240 148.4
1.8280 105.8
1.8320 89.2
1.8360 117.5
1.8400 146.7
1.8440 156.7
1.8480 198.4
1.8520 261.7
1.8560 281.7
1.8600 330.9
1.8640 308.4
1.8680 349.3
1.8720 367.6
1.8760 335.9
1.8800 325.1
1.8840 289.3
1.8880 260.9
1.8920 205.0
1.8960 161.7
1.9000 138.4
1.9040 104.2
1.9080 87.5
1.9120 102.5
1.9160 95.0
1.9200 132.5
1.9240 164.2
1.9280 190.9
1.9320 225.1
1.9360 279.2
1.9400 269.2
1.9440 310.1
1.9480 349.3
1.9520 323.4
1.9560 300.9
1.9600 285.1
1.9640 251.7
1.9680 230.1
1.9720 200.9
1.9760 145.9
1.9800 120.0
1.9840 101.7
1.9880 119.2
1.9920 84.2
1.9960 96.7
2.0000 113.3
2.0040 156.7
2.0080 179.2
2.0120 215.9
2.0160 248.4
2.0200 311.8
2.0240 341.0
2.0280 360.1
2.0320 380.1
2.0360 330.9
2.0400 335.1
2.0440 280.9
2.0480 255.1
2.0520 221.7
2.0560 171.7
2.0600 140.0
2.0640 105.0
2.0680 70.0
2.0720 82.5
2.0760 79.2
2.0800 90.0
2.0840 118.3
2.0880 176.7
2.0920 200.9
2.0960 248.4
2.1000 268.4
2.1040 331.8
2.1080 356.8
2.1120 408.5
2.1160 407.7
2.1200 394.3
2.1240 388.5
2.1280 303.4
2.1320 274.2
2.1360 266.7
2.1400 208.4
2.1440 169.2
2.1480 120.8
2.1520 114.2
2.1560 70.8
2.1600 91.7
2.1640 102.5
2.1680 125.9
2.1720 166.7
2.1760 225.1
2.1800 264.2
2.1840 306.8
2.1880 366.0
2.1920 393.5
2.1960 449.4
2.2000 434.4
2.2040 459.4
2.2080 451.0
2.2120 402.7
2.2160 366.8
2.2200 306.8
2.2240 286.8
2.2280 208.4
2.2320 160.0
2.2360 124.2
2.2400 95.0
2.2440 87.5
2.2480 89.2
2.2520 107.5
2.2560 131.7
2.2600 210.9
2.2640 224.2
2.2680 327.6
2.2720 367.6
2.2760 419.3
2.2800 455.2
2.2840 493.6
2.2880 508.6
2.2920 493.6
2.2960 476.1
2.3000 400.2
2.3040 410.2
2.3080 353.5
2.3120 261.7
2.3160 239.2
2.3200 166.7
2.3240 155.9
2.3280 113.3
2.3320 111.7
2.3360 97.5
2.3400 139.2
2.3440 185.0
2.3480 237.6
2.3520 270.9
2.3560 351.0
2.3600 419.3
2.3640 474.4
2.3680 482.7
2.3720 557.0
2.3760 560.3
2.3800 578.7
2.3840 507.8
2.3880 486.1
2.3920 456.9
2.3960 409.3
2.4000 326.8
2.4040 256.7
2.4080 185.0
2.4120 160.0
2.4160 125.8
2.4200 118.3
2.4240 140.0
2.4280 155.9
2.4320 179.2
2.4360 249.2
2.4400 302.6
2.4440 380.1
2.4480 457.7
2.4520 511.1
2.4560 553.6
2.4600 569.5
2.4640 555.3
2.4680 589.5
2.4720 577.8
2.4760 505.3
2.4800 475.2
2.4840 439.4
2.4880 312.6
2.4920 280.9
2.4960 207.5
2.5000 206.7
2.5040 155.9
2.5080 145.9
2.5120 165.9
2.5160 155.9
2.5200 208.4
2.5240 260.9
2.5280 332.6
2.5320 391.0
2.5360 456.0
2.5400 522.8
2.5440 561.2
2.5480 602.0
2.5520 587.9
2.5560 655.4
2.5600 561.2
2.5640 543.6
2.5680 499.4
2.5720 444.4
2.5760 396.0
2.5800 351.0
2.5840 250.9
2.5880 199.2
2.5920 200.9
2.5960 170.9
2.6000 166.7
2.6040 170.9
2.6080 222.6
2.6120 278.4
2.6160 308.4
2.6200 394.3
2.6240 444.4
2.6280 543.6
2.6320 550.3
2.6360 591.2
2.6400 651.3
2.6440 630.4
2.6480 626.2
2.6520 597.9
2.6560 581.2
2.6600 499.4
2.6640 430.2
2.6680 330.9
2.6720 292.6
2.6760 225.9
2.6800 209.2
2.6840 202.5
2.6880 190.9
2.6920 210.0
2.6960 221.7
2.7000 283.4
2.7040 283.4
2.7080 362.6
2.7120 458.5
2.7160 506.1
2.7200 586.2
2.7240 606.2
2.7280 609.5
2.7320 631.2
2.7360 615.4
2.7400 579.5
2.7440 532.8
2.7480 508.6
2.7520 428.5
2.7560 395.2
2.7600 328.4
2.7640 293.4
2.7680 248.4
2.7720 192.5
2.7760 190.9
2.7800 177.5
2.7840 201.7
2.7880 246.7
2.7920 300.9
2.7960 371.0
2.8000 426.0
2.8040 495.3
2.8080 539.5
2.8120 564.5
2.8160 604.5
2.8200 659.6
2.8240 618.7
2.8280 601.2
2.8320 547.8
2.8360 505.3
2.8400 489.4
2.8440 395.2
2.8480 342.6
2.8520 290.9
2.8560 234.2
2.8600 232.6
2.8640 185.9
2.8680 200.0
2.8720 204.2
2.8760 205.0
2.8800 302.6
2.8840 320.1
2.8880 391.0
2.8920 409.3
2.8960 462.7
2.9000 548.6
2.9040 545.3
2.9080 599.5
2.9120 575.3
2.9160 583.7
2.9200 550.3
2.9240 576.2
2.9280 463.6
2.9320 457.7
2.9360 381.8
2.9400 338.4
2.9440 246.7
2.9480 244.2
2.9520 206.7
2.9560 171.7
2.9600 189.2
2.9640 206.7
2.9680 244.2
2.9720 266.7
2.9760 315.9
2.9800 399.3
2.9840 446.9
2.9880 473.6
2.9920 502.8
2.9960 571.2
3.0000 599.5
3.0040 547.8
3.0080 527.8
3.0120 571.2
3.0160 531.1
3.0200 476.1
3.0240 391.0
3.0280 362.6
3.0320 286.8
3.0360 255.9
3.0400 207.5
3.0440 210.9
3.0480 181.7
3.0520 200.9
3.0560 198.4
3.0600 253.4
3.0640 285.1
3.0680 345.1
3.0720 380.1
3.0760 419.3
3.0800 503.6
3.0840 520.3
3.0880 585.3
3.0920 600.4
3.0960 510.3
3.1000 533.6
3.1040 506.1
3.1080 471.1
3.1120 396.8
3.1160 356.0
3.1200 314.3
3.1240 260.9
3.1280 242.6
3.1320 195.9
3.1360 189.2
3.1400 176.7
3.1440 192.5
3.1480 217.5
3.1520 264.2
3.1560 285.1
3.1600 372.6
3.1640 404.3
3.1680 416.8
3.1720 449.4
3.1760 533.6
3.1800 531.1
3.1840 532.8
3.1880 553.6
3.1920 504.4
3.1960 476.1
3.2000 383.5
3.2040 356.8
3.2080 361.0
3.2120 251.7
3.2160 230.9
3.2200 214.2
3.2240 165.9
3.2280 151.7
3.2320 173.4
3.2360 192.5
3.2400 210.9
3.2440 256.7
3.2480 316.8
3.2520 321.8
3.2560 389.3
3.2600 393.5
3.2640 425.2
3.2680 462.7
3.2720 488.6
3.2760 478.6
3.2800 437.7
3.2840 461.1
3.2880 399.3
3.2920 363.5
3.2960 356.8
3.3000 275.9
3.3040 237.6
3.3080 244.2
3.3120 189.2
3.3160 159.2
3.3200 164.2
3.3240 166.7
3.3280 185.0
3.3320 183.4
3.3360 230.1
3.3400 260.9
3.3440 311.8
3.3480 343.5
3.3520 376.8
3.3560 401.8
3.3600 417.7
3.3640 417.7
3.3680 421.0
3.3720 419.3
3.3760 395.2
3.3800 350.1
3.3840 324.3
3.3880 284.3
3.3920 257.6
3.3960 211.7
3.4000 186.7
3.4040 163.4
3.4080 164.2
3.4120 153.4
3.4160 153.4
3.4200 170.0
3.4240 199.2
3.4280 210.0
3.4320 266.7
3.4360 305.9
3.4400 319.3
3.4440 399.3
3.4480 367.6
3.4520 413.5
3.4560 424.3
3.4600 389.3
3.4640 415.2
3.4680 363.5
3.4720 330.9
3.4760 331.8
3.4800 263.4
3.4840 235.9
3.4880 209.2
3.4920 175.9
3.4960 168.4
3.5000 130.0
3.5040 145.9
3.5080 160.9
3.5120 153.4
3.5160 156.7
3.5200 217.5
3.5240 226.7
3.5280 279.2
3.5320 285.9
3.5360 311.8
3.5400 340.1
3.5440 369.3
3.5480 333.4
3.5520 302.6
3.5560 331.8
3.5600 315.9
3.5640 257.6
3.5680 267.6
3.5720 234.2
3.5760 191.7
3.5800 185.0
3.5840 163.4
3.5880 138.4
3.5920 124.2
3.5960 134.2
3.6000 133.4
3.6040 159.2
3.6080 155.0
3.6120 175.0
3.6160 217.5
3.6200 250.1
3.6240 266.7
3.6280 256.7
3.6320 291.8
3.6360 325.1
3.6400 340.1
3.6440 322.6
3.6480 295.1
3.6520 306.8
3.6560 286.8
3.6600 249.2
3.6640 206.7
3.6680 181.7
3.6720 170.9
3.6760 137.5
3.6800 140.9
3.6840 124.2
3.6880 124.2
3.6920 127.5
3.6960 146.7
3.7000 147.5
3.7040 185.0
3.7080 213.4
3.7120 208.4
3.7160 264.2
3.7200 266.7
3.7240 272.6
3.7280 282.6
3.7320 270.1
3.7360 270.9
3.7400 275.1
3.7440 244.2
3.7480 225.1
3.7520 202.5
3.7560 169.2
3.7600 153.4
3.7640 155.0
3.7680 115.0
3.7720 108.3
3.7760 105.0
3.7800 100.8
3.7840 104.2
3.7880 99.2
3.7920 133.4
3.7960 152.5
3.8000 180.0
3.8040 202.5
3.8080 231.7
3.8120 231.7
3.8160 280.1
3.8200 260.9
3.8240 222.6
3.8280 231.7
3.8320 245.9
3.8360 257.6
3.8400 210.0
3.8440 189.2
3.8480 188.4
3.8520 149.2
3.8560 116.7
3.8600 128.4
3.8640 85.8
3.8680 101.7
3.8720 110.0
3.8760 105.0
3.8800 95.0
3.8840 130.0
3.8880 120.0
3.8920 157.5
3.8960 175.9
3.9000 185.9
3.9040 204.2
3.9080 207.5
3.9120 245.9
3.9160 247.6
3.9200 208.4
3.9240 215.0
3.9280 200.0
3.9320 163.4
3.9360 161.7
3.9400 137.5
3.9440 128.4
3.9480 100.0
3.9520 91.7
3.9560 85.0
3.9600 83.3
3.9640 65.0
3.9680 79.2
3.9720 94.2
3.9760 101.7
3.9800 117.5
3.9840 150.0
3.9880 125.8
3.9920 170.9
3.9960 204.2
4.0000 195.9
4.0040 185.9
4.0080 194.2
4.0120 201.7
4.0160 174.2
4.0200 178.4
4.0240 159.2
4.0280 144.2
4.0320 124.2
4.0360 101.7
4.0400 94.2
4.0440 72.5
4.0480 85.0
4.0520 84.2
4.0560 87.5
4.0600 65.8
4.0640 81.7
4.0680 89.2
4.0720 111.7
4.0760 133.4
4.0800 125.9
4.0840 143.4
4.0880 142.5
4.0920 191.7
4.0960 170.0
4.1000 155.0
4.1040 157.5
4.1080 167.5
4.1120 150.9
4.1160 130.0
4.1200 123.3
4.1240 112.5
4.1280 81.7
4.1320 80.8
4.1360 70.0
4.1400 65.0
4.1440 58.3
4.1480 55.0
4.1520 65.0
4.1560 65.0
4.1600 70.8
4.1640 84.2
4.1680 100.0
4.1720 115.0
4.1760 132.5
4.1800 140.0
4.1840 161.7
4.1880 158.4
4.1920 154.2
4.1960 151.7
4.2000 143.4
4.2040 139.2
4.2080 127.5
4.2120 102.5
4.2160 94.2
4.2200 96.7
4.2240 75.0
4.2280 66.7
4.2320 55.0
4.2360 56.7
4.2400 55.0
4.2440 70.8
4.2480 56.7
4.2520 65.0
4.2560 75.8
4.2600 70.8
4.2640 86.7
4.2680 120.0
4.2720 120.8
4.2760 120.8
4.2800 124.2
4.2840 114.2
4.2880 110.0
4.2920 113.3
4.2960 125.8
4.3000 91.7
4.3040 87.5
4.3080 79.2
4.3120 80.8
4.3160 66.7
4.3200 36.7
4.3240 44.2
4.3280 35.0
4.3320 47.5
4.3360 45.8
4.3400 50.0
4.3440 57.5
4.3480 67.5
4.3520 69.2
4.3560 77.5
4.3600 96.7
4.3640 89.2
4.3680 103.3
4.3720 105.0
4.3760 119.2
4.3800 100.8
4.3840 98.3
4.3880 88.3
4.3920 97.5
4.3960 73.3
4.4000 53.3
4.4040 88.3
4.4080 60.0
4.4120 41.7
4.4160 50.8
4.4200 45.8
4.4240 39.2
4.4280 35.8
4.4320 40.0
4.4360 47.5
4.4400 45.0
4.4440 52.5
4.4480 77.5
4.4520 63.3
4.4560 75.0
4.4600 77.5
4.4640 82.5
4.4680 74.2
4.4720 80.8
4.4760 98.3
4.4800 78.3
4.4840 65.8
4.4880 60.0
4.4920 46.7
4.4960 65.8
4.5000 46.7
4.5040 35.0
4.5080 32.5
4.5120 35.0
4.5160 30.8
4.5200 15.0
4.5240 32.5
4.5280 48.3
4.5320 39.2
4.5360 40.0
4.5400 54.2
4.5440 54.2
4.5480 77.5
4.5520 65.8
4.5560 65.0
4.5600 67.5
4.5640 74.2
4.5680 64.2
4.5720 70.8
4.5760 62.5
4.5800 65.0
4.5840 48.3
4.5880 53.3
4.5920 30.0
4.5960 45.8
4.6000 34.2
4.6040 35.0
4.6080 27.5
4.6120 25.0
4.6160 33.3
4.6200 30.8
4.6240 38.3
4.6280 33.3
4.6320 44.2
4.6360 47.5
4.6400 52.5
4.6440 60.8
4.6480 55.8
4.6520 60.0
4.6560 64.2
4.6600 66.7
4.6640 61.7
4.6680 45.8
4.6720 42.5
4.6760 41.7
4.6800 35.0
4.6840 38.3
4.6880 33.3
4.6920 21.7
4.6960 26.7
4.7000 25.0
4.7040 30.0
4.7080 15.8
4.7120 24.2
4.7160 15.8
4.7200 30.0
4.7240 30.0
4.7280 39.2
4.7320 42.5
4.7360 44.2
4.7400 44.2
4.7440 55.8
4.7480 40.0
4.7520 44.2
4.7560 51.7
4.7600 45.8
4.7640 49.2
4.7680 39.2
4.7720 41.7
4.7760 20.0
4.7800 22.5
4.7840 24.2
4.7880 19.2
4.7920 11.7
4.7960 16.7
4.8000 26.7
4.8040 16.7
4.8080 22.5
4.8120 19.2
4.8160 38.3
4.8200 22.5
4.8240 30.0
4.8280 40.0
4.8320 39.2
4.8360 32.5
4.8400 37.5
4.8440 35.0
4.8480 39.2
4.8520 40.0
4.8560 40.0
4.8600 30.8
4.8640 23.3
4.8680 26.7
4.8720 19.2
4.8760 14.2
4.8800 18.3
4.8840 21.7
4.8880 8.3
4.8920 5.8
4.8960 19.2
4.9000 25.0
4.9040 12.5
4.9080 27.5
4.9120 22.5
4.9160 29.2
4.9200 33.3
4.9240 40.0
4.9280 32.5
4.9320 35.0
4.9360 30.0
4.9400 26.7
4.9440 20.8
4.9480 25.8
4.9520 27.5
4.9560 17.5
4.9600 15.0
4.9640 14.2
4.9680 16.7
4.9720 7.5
4.9760 7.5
4.9800 15.8
4.9840 8.3
4.9880 18.3
4.9920 13.3
4.9960 13.3
5.0000 20.8
5.0040 15.0
5.0080 17.5
5.0120 18.3
5.0160 27.5
5.0200 21.7
5.0240 16.7
5.0280 24.2
5.0320 27.5
5.0360 21.7
5.0400 30.8
5.0440 12.5
5.0480 19.2
5.0520 14.2
5.0560 8.3
5.0600 10.0
5.0640 10.0
5.0680 5.8
5.0720 10.0
5.0760 11.7
5.0800 11.7
5.0840 20.0
5.0880 13.3
5.0920 20.0
5.0960 13.3
5.1000 14.2
5.1040 17.5
5.1080 14.2
5.1120 16.7
5.1160 22.5
5.1200 23.3
5.1240 15.0
5.1280 13.3
5.1320 15.8
5.1360 10.8
5.1400 8.3
5.1440 11.7
5.1480 9.2
5.1520 5.8
5.1560 6.7
5.1600 7.5
5.1640 11.7
5.1680 6.7
5.1720 6.7
5.1760 7.5
5.1800 8.3
5.1840 10.8
5.1880 15.8
5.1920 17.5
5.1960 14.2
5.2000 10.0
5.2040 11.7
5.2080 20.0
5.2120 20.8
5.2160 12.5
5.2200 15.0
5.2240 8.3
5.2280 14.2
5.2320 9.2
5.2360 4.2
5.2400 8.3
5.2440 5.8
5.2480 9.2
5.2520 9.2
5.2560 6.7
5.2600 9.2
5.2640 4.2
5.2680 5.8
5.2720 7.5
5.2760 2.5
5.2800 4.2
5.2840 8.3
5.2880 12.5
5.2920 12.5
5.2960 14.2
5.3000 11.7
5.3040 10.8
5.3080 11.7
5.3120 11.7
5.3160 9.2
5.3200 9.2
5.3240 10.8
5.3280 9.2
5.3320 6.7
5.3360 7.5
5.3400 6.7
5.3440 5.8
5.3480 4.2
5.3520 1.7
5.3560 5.0
5.3600 5.8
5.3640 8.3
5.3680 7.5
5.3720 8.3
5.3760 10.0
5.3800 9.2
5.3840 10.8
5.3880 2.5
5.3920 12.5
5.3960 10.0
5.4000 9.2
5.4040 9.2
5.4080 5.0
5.4120 6.7
5.4160 11.7
5.4200 5.8
5.4240 7.5
5.4280 3.3
5.4320 5.8
5.4360 11.7
5.4400 7.5
5.4440 5.8
5.4480 5.8
5.4520 7.5
5.4560 9.2
5.4600 6.7
5.4640 6.7
5.4680 6.7
5.4720 8.3
5.4760 5.0
5.4800 6.7
5.4840 8.3
5.4880 9.2
5.4920 8.3
5.4960 5.0
5.5000 7.5
5.5040 5.0
5.5080 8.3
5.5120 6.7
5.5160 5.0
5.5200 5.0
5.5240 8.3
5.5280 5.0
5.5320 5.8
5.5360 5.8
5.5400 10.8
5.5440 7.5
5.5480 6.7
5.5520 5.0
5.5560 11.7
5.5600 5.0
5.5640 8.3
5.5680 3.3
5.5720 6.7
5.5760 5.0
5.5800 5.8
5.5840 10.8
5.5880 5.8
5.5920 6.7
5.5960 8.3
5.6000 3.3
5.6040 5.0
5.6080 6.7
5.6120 5.0
5.6160 10.8
5.6200 8.3
5.6240 10.8
5.6280 4.2
5.6320 6.7
5.6360 4.2
5.6400 5.8
5.6440 8.3
5.6480 10.0
5.6520 6.7
5.6560 5.0
5.6600 5.8
5.6640 2.5
5.6680 5.0
5.6720 7.5
5.6760 5.8
5.6800 5.8
5.6840 5.0
5.6880 9.2
5.6920 3.3
5.6960 2.5
5.7000 5.0
5.7040 7.5
5.7080 7.5
5.7120 6.7
5.7160 5.0
5.7200 6.7
5.7240 10.8
5.7280 6.7
5.7320 11.7
5.7360 6.7
5.7400 2.5
5.7440 3.3
5.7480 7.5
5.7520 5.0
5.7560 5.0
5.7600 2.5
5.7640 5.0
5.7680 4.2
5.7720 4.2
5.7760 5.8
5.7800 12.5
5.7840 10.0
5.7880 9.2
5.7920 10.8
5.7960 10.0
5.8000 5.8
5.8040 6.7
5.8080 7.5
5.8120 5.0
5.8160 10.0
5.8200 5.8
5.8240 5.0
5.8280 6.7
5.8320 3.3
5.8360 5.8
5.8400 5.8
5.8440 5.0
5.8480 5.0
5.8520 8.3
5.8560 4.2
5.8600 7.5
5.8640 4.2
5.8680 4.2
5.8720 5.0
5.8760 4.2
5.8800 10.0
5.8840 2.5
5.8880 5.0
5.8920 6.7
5.8960 5.0
5.9000 6.7
5.9040 7.5
5.9080 7.5
5.9120 7.5
5.9160 4.2
5.9200 3.3
5.9240 3.3
5.9280 6.7
5.9320 5.0
5.9360 2.5
5.9400 4.2
5.9440 4.2
5.9480 9.2
5.9520 4.2
5.9560 5.8
5.9600 6.7
5.9640 4.2
5.9680 4.2
5.9720 9.2
5.9760 4.2
5.9800 4.2
5.9840 2.5
5.9880 10.8
5.9920 8.3
5.9960 5.8
6.0000 9.2
