;Bundle             = 1
;Partition          = 1
;Operator           = 
;Gonio              = ATX-G
;Memo               = 
;IncidentMonochro   = ½Ø¯ÄºØÒ°¼®Ý
;CounterMonochro    = ŽóŒõ½Ø¯Ä
;Attachment         = XY-STAGE
;Filter             = 
;SlitName0          = S1 10*0.5
;SlitName1          = S2 2*0.05
;SlitName2          = ATT 
;SlitName3          = RS 2*0.1
;SlitName4          = GS nothing
;Counter            = SC-70
;KAlpha1            = 1.5403
;KAlpha2            = 1.5434
;KBata              = 0
;Target             = Cu
;KV                 = 50
;mA                 = 300
;AxisName           = 2Theta/Omega
;MeasurementMethod = Continuation
;Start              = 0.2
;Finish             = 6
;Speed              = 2
;FixedTime          = 
;Width              = 0.004
;FullScale         = 1e+06
;Comment            = 0.35
;SampleName         = 
;Xunit              = deg.
;Yunit              = CPS
0.2000 361090.6
0.2040 363969.5
0.2080 386332.4
0.2120 391027.7
0.2160 397567.8
0.2200 405380.9
0.2240 418475.9
0.2280 434770.3
0.2320 445005.5
0.2360 455153.0
0.2400 480343.0
0.2440 471337.3
0.2480 496756.8
0.2520 511344.7
0.2560 519403.0
0.2600 521527.0
0.2640 531419.7
0.2680 543120.3
0.2720 542772.4
0.2760 555137.0
0.2800 547573.4
0.2840 545355.3
0.2880 561137.9
0.2920 569933.2
0.2960 576183.6
0.3000 579926.3
0.3040 578639.6
0.3080 578969.5
0.3120 586650.4
0.3160 602621.2
0.3200 591738.9
0.3240 611529.6
0.3280 593795.2
0.3320 599627.1
0.3360 618458.8
0.3400 614567.1
0.3440 599753.9
0.3480 597330.7
0.3520 596815.8
0.3560 614644.2
0.3600 610707.0
0.3640 604805.4
0.3680 606758.2
0.3720 606703.2
0.3760 625965.2
0.3800 621836.7
0.3840 626383.9
0.3880 627978.2
0.3920 622935.2
0.3960 649123.2
0.4000 642832.6
0.4040 660644.1
0.4080 627967.7
0.4120 658705.1
0.4160 656509.1
0.4200 655115.7
0.4240 678653.2
0.4280 653541.4
0.4320 664944.9
0.4360 681483.5
0.4400 673579.5
0.4440 678578.2
0.4480 681521.6
0.4520 678270.5
0.4560 665131.0
0.4600 680127.1
0.4640 663721.7
0.4680 663649.8
0.4720 675498.4
0.4760 662718.4
0.4800 664458.6
0.4840 658708.2
0.4880 675617.9
0.4920 657690.1
0.4960 647277.2
0.5000 658495.8
0.5040 640052.0
0.5080 632549.8
0.5120 630274.6
0.5160 650934.2
0.5200 652235.8
0.5240 657181.6
0.5280 656299.8
0.5320 636367.5
0.5360 640292.0
0.5400 646854.4
0.5440 652473.6
0.5480 653666.2
0.5520 652143.8
0.5560 654453.9
0.5600 661673.8
0.5640 660724.4
0.5680 661363.0
0.5720 662829.4
0.5760 671101.3
0.5800 664167.9
0.5840 654332.2
0.5880 650039.9
0.5920 661959.2
0.5960 661410.6
0.6000 669146.4
0.6040 668476.1
0.6080 669884.4
0.6120 660183.1
0.6160 669935.1
0.6200 673136.5
0.6240 665210.3
0.6280 679210.4
0.6320 674245.6
0.6360 664562.2
0.6400 658716.7
0.6440 670137.1
0.6480 646489.6
0.6520 658289.6
0.6560 647021.4
0.6600 636619.1
0.6640 645526.4
0.6680 649489.0
0.6720 627982.4
0.6760 622124.2
0.6800 628277.4
0.6840 609114.8
0.6880 613035.1
0.6920 607672.8
0.6960 586118.6
0.7000 594162.1
0.7040 570910.1
0.7080 579887.2
0.7120 567501.5
0.7160 552822.7
0.7200 533300.6
0.7240 522065.2
0.7280 497212.4
0.7320 487316.6
0.7360 480408.5
0.7400 463060.1
0.7440 436437.6
0.7480 428301.0
0.7520 405666.3
0.7560 378489.8
0.7600 376080.3
0.7640 359761.7
0.7680 345148.3
0.7720 325579.8
0.7760 325498.9
0.7800 310139.8
0.7840 295976.2
0.7880 277486.5
0.7920 263125.8
0.7960 252574.3
0.8000 237984.4
0.8040 224908.0
0.8080 213674.0
0.8120 203381.2
0.8160 193683.6
0.8200 184212.3
0.8240 173459.1
0.8280 166369.5
0.8320 156970.7
0.8360 150055.2
0.8400 142484.4
0.8440 136982.4
0.8480 132214.9
0.8520 126733.8
0.8560 119929.9
0.8600 114309.2
0.8640 110739.9
0.8680 103776.5
0.8720 101233.6
0.8760 95879.9
0.8800 92936.0
0.8840 87033.6
0.8880 85440.1
0.8920 80726.5
0.8960 79158.2
0.9000 74837.2
0.9040 73631.3
0.9080 68667.6
0.9120 67257.2
0.9160 64822.1
0.9200 62391.1
0.9240 59673.9
0.9280 56501.9
0.9320 56217.1
0.9360 52649.0
0.9400 50346.3
0.9440 48307.9
0.9480 45967.3
0.9520 44834.7
0.9560 45100.3
0.9600 42961.7
0.9640 42185.5
0.9680 41913.7
0.9720 39823.3
0.9760 37112.9
0.9800 36585.4
0.9840 34634.9
0.9880 33900.4
0.9920 31698.0
0.9960 30492.0
1.0000 28835.9
1.0040 28585.1
1.0080 27712.6
1.0120 26686.2
1.0160 26947.6
1.0200 26190.9
1.0240 26033.2
1.0280 24848.0
1.0320 25213.8
1.0360 23495.8
1.0400 22608.9
1.0440 22291.6
1.0480 21116.0
1.0520 18874.8
1.0560 19161.2
1.0600 17977.2
1.0640 17189.5
1.0680 16077.7
1.0720 15967.1
1.0760 15966.3
1.0800 15415.5
1.0840 16027.3
1.0880 15673.7
1.0920 15253.1
1.0960 15829.2
1.1000 14737.0
1.1040 14247.7
1.1080 13826.8
1.1120 12525.6
1.1160 11799.6
1.1200 11449.4
1.1240 10810.2
1.1280 9840.2
1.1320 8930.8
1.1360 9228.0
1.1400 9508.1
1.1440 8879.6
1.1480 9228.4
1.1520 8956.7
1.1560 8829.5
1.1600 8982.0
1.1640 9356.2
1.1680 9220.1
1.1720 8956.2
1.1760 9057.7
1.1800 7939.1
1.1840 7676.5
1.1880 6974.3
1.1920 6451.0
1.1960 6256.6
1.2000 6020.4
1.2040 5640.7
1.2080 5581.7
1.2120 4924.6
1.2160 4789.9
1.2200 4807.2
1.2240 5598.4
1.2280 5295.0
1.2320 5278.6
1.2360 5194.5
1.2400 5564.9
1.2440 5506.2
1.2480 5598.6
1.2520 4933.0
1.2560 4899.3
1.2600 4344.1
1.2640 3831.6
1.2680 3546.3
1.2720 3470.5
1.2760 3386.8
1.2800 2808.0
1.2840 2699.1
1.2880 2288.7
1.2920 2699.1
1.2960 2674.0
1.3000 3176.8
1.3040 2824.7
1.3080 3126.8
1.3120 3655.3
1.3160 3428.6
1.3200 3436.9
1.3240 3277.6
1.3280 2724.3
1.3320 2908.5
1.3360 2640.4
1.3400 2489.6
1.3440 2146.4
1.3480 1602.6
1.3520 1477.3
1.3560 1385.3
1.3600 1552.4
1.3640 1485.6
1.3680 1260.0
1.3720 1209.8
1.3760 1535.7
1.3800 1644.5
1.3840 1903.7
1.3880 2012.5
1.3920 1987.4
1.3960 1970.7
1.4000 2104.6
1.4040 2020.8
1.4080 1828.4
1.4120 1711.3
1.4160 1527.4
1.4200 1151.4
1.4240 1084.5
1.4280 1026.1
1.4320 767.3
1.4360 708.9
1.4400 608.7
1.4440 525.3
1.4480 733.9
1.4520 700.5
1.4560 834.0
1.4600 942.6
1.4640 1051.1
1.4680 1226.5
1.4720 1042.8
1.4760 1209.9
1.4800 1117.9
1.4840 909.2
1.4880 959.3
1.4920 1051.1
1.4960 900.8
1.5000 775.6
1.5040 558.6
1.5080 508.6
1.5120 441.9
1.5160 350.1
1.5200 283.4
1.5240 266.7
1.5280 183.4
1.5320 225.1
1.5360 391.8
1.5400 550.3
1.5440 508.6
1.5480 717.2
1.5520 642.1
1.5560 583.7
1.5600 809.0
1.5640 909.2
1.5680 617.1
1.5720 675.5
1.5760 542.0
1.5800 516.9
1.5840 341.8
1.5880 416.8
1.5920 158.4
1.5960 208.4
1.6000 141.7
1.6040 75.0
1.6080 108.3
1.6120 150.0
1.6160 116.7
1.6200 225.1
1.6240 208.4
1.6280 225.1
1.6320 308.4
1.6360 375.2
1.6400 433.5
1.6440 533.6
1.6480 383.5
1.6520 500.3
1.6560 475.2
1.6600 275.1
1.6640 308.4
1.6680 300.1
1.6720 241.7
1.6760 225.1
1.6800 133.4
1.6840 116.7
1.6880 50.0
1.6920 91.7
1.6960 41.7
1.7000 133.4
1.7040 100.0
1.7080 133.4
1.7120 158.4
1.7160 191.7
1.7200 241.7
1.7240 316.8
1.7280 241.7
1.7320 258.4
1.7360 291.8
1.7400 283.4
1.7440 325.1
1.7480 191.7
1.7520 183.4
1.7560 150.0
1.7600 175.0
1.7640 116.7
1.7680 100.0
1.7720 141.7
1.7760 100.0
1.7800 83.3
1.7840 75.0
1.7880 50.0
1.7920 133.4
1.7960 158.4
1.8000 100.0
1.8040 133.4
1.8080 158.4
1.8120 216.7
1.8160 183.4
1.8200 108.3
1.8240 183.4
1.8280 166.7
1.8320 116.7
1.8360 133.4
1.8400 208.4
1.8440 225.1
1.8480 175.0
1.8520 150.0
1.8560 183.4
1.8600 116.7
1.8640 208.4
1.8680 100.0
1.8720 75.0
1.8760 50.0
1.8800 83.3
1.8840 141.7
1.8880 108.3
1.8920 66.7
1.8960 158.4
1.9000 141.7
1.9040 116.7
1.9080 166.7
1.9120 100.0
1.9160 91.7
1.9200 150.0
1.9240 191.7
1.9280 208.4
1.9320 125.0
1.9360 191.7
1.9400 175.0
1.9440 166.7
1.9480 183.4
1.9520 208.4
1.9560 241.7
1.9600 241.7
1.9640 141.7
1.9680 116.7
1.9720 150.0
1.9760 150.0
1.9800 150.0
1.9840 100.0
1.9880 75.0
1.9920 141.7
1.9960 91.7
2.0000 100.0
2.0040 100.0
2.0080 133.4
2.0120 125.0
2.0160 166.7
2.0200 200.0
2.0240 208.4
2.0280 225.1
2.0320 183.4
2.0360 241.7
2.0400 366.8
2.0440 233.4
2.0480 250.1
2.0520 150.0
2.0560 258.4
2.0600 208.4
2.0640 75.0
2.0680 108.3
2.0720 116.7
2.0760 108.3
2.0800 100.0
2.0840 41.7
2.0880 50.0
2.0920 116.7
2.0960 125.0
2.1000 100.0
2.1040 166.7
2.1080 108.3
2.1120 241.7
2.1160 191.7
2.1200 275.1
2.1240 225.1
2.1280 175.0
2.1320 258.4
2.1360 283.4
2.1400 158.4
2.1440 125.0
2.1480 141.7
2.1520 166.7
2.1560 108.3
2.1600 75.0
2.1640 75.0
2.1680 41.7
2.1720 33.3
2.1760 58.3
2.1800 75.0
2.1840 75.0
2.1880 91.7
2.1920 183.4
2.1960 208.4
2.2000 175.0
2.2040 233.4
2.2080 275.1
2.2120 250.1
2.2160 283.4
2.2200 325.1
2.2240 333.4
2.2280 241.7
2.2320 250.1
2.2360 141.7
2.2400 216.7
2.2440 91.7
2.2480 125.0
2.2520 66.7
2.2560 50.0
2.2600 33.3
2.2640 58.3
2.2680 50.0
2.2720 108.3
2.2760 58.3
2.2800 158.4
2.2840 100.0
2.2880 225.1
2.2920 175.0
2.2960 283.4
2.3000 233.4
2.3040 333.4
2.3080 283.4
2.3120 325.1
2.3160 333.5
2.3200 200.0
2.3240 266.7
2.3280 208.4
2.3320 175.0
2.3360 208.4
2.3400 58.3
2.3440 100.0
2.3480 100.0
2.3520 50.0
2.3560 50.0
2.3600 41.7
2.3640 91.7
2.3680 158.4
2.3720 91.7
2.3760 225.1
2.3800 183.4
2.3840 258.4
2.3880 283.4
2.3920 308.4
2.3960 333.4
2.4000 308.4
2.4040 350.1
2.4080 333.4
2.4120 258.4
2.4160 291.8
2.4200 241.7
2.4240 166.7
2.4280 141.7
2.4320 125.0
2.4360 66.7
2.4400 33.3
2.4440 83.3
2.4480 50.0
2.4520 91.7
2.4560 83.3
2.4600 150.0
2.4640 200.0
2.4680 83.3
2.4720 250.1
2.4760 258.4
2.4800 333.4
2.4840 266.7
2.4880 258.4
2.4920 366.8
2.4960 283.4
2.5000 341.8
2.5040 300.1
2.5080 266.7
2.5120 191.7
2.5160 200.0
2.5200 108.3
2.5240 83.3
2.5280 91.7
2.5320 50.0
2.5360 33.3
2.5400 58.3
2.5440 108.3
2.5480 108.3
2.5520 133.4
2.5560 100.0
2.5600 166.7
2.5640 241.7
2.5680 258.4
2.5720 316.8
2.5760 358.5
2.5800 400.2
2.5840 275.1
2.5880 358.5
2.5920 316.8
2.5960 350.1
2.6000 283.4
2.6040 158.4
2.6080 200.0
2.6120 66.7
2.6160 200.0
2.6200 58.3
2.6240 83.3
2.6280 41.7
2.6320 41.7
2.6360 108.3
2.6400 83.3
2.6440 166.7
2.6480 141.7
2.6520 141.7
2.6560 266.7
2.6600 291.8
2.6640 358.5
2.6680 283.4
2.6720 300.1
2.6760 300.1
2.6800 258.4
2.6840 375.2
2.6880 333.4
2.6920 316.8
2.6960 141.7
2.7000 108.3
2.7040 83.3
2.7080 183.4
2.7120 75.0
2.7160 58.3
2.7200 66.7
2.7240 66.7
2.7280 58.3
2.7320 75.0
2.7360 208.4
2.7400 191.7
2.7440 116.7
2.7480 241.7
2.7520 316.8
2.7560 308.4
2.7600 375.1
2.7640 325.1
2.7680 383.5
2.7720 325.1
2.7760 333.4
2.7800 258.4
2.7840 241.7
2.7880 233.4
2.7920 183.4
2.7960 166.7
2.8000 100.0
2.8040 125.0
2.8080 75.0
2.8120 50.0
2.8160 75.0
2.8200 125.0
2.8240 83.3
2.8280 91.7
2.8320 125.0
2.8360 250.1
2.8400 250.1
2.8440 308.4
2.8480 366.8
2.8520 400.2
2.8560 250.1
2.8600 208.4
2.8640 300.1
2.8680 366.8
2.8720 225.1
2.8760 300.1
2.8800 191.7
2.8840 258.4
2.8880 150.0
2.8920 75.0
2.8960 116.7
2.9000 133.4
2.9040 75.0
2.9080 91.7
2.9120 200.0
2.9160 133.4
2.9200 141.7
2.9240 183.4
2.9280 225.1
2.9320 316.8
2.9360 291.8
2.9400 316.8
2.9440 300.1
2.9480 375.1
2.9520 291.8
2.9560 325.1
2.9600 350.1
2.9640 233.4
2.9680 283.4
2.9720 241.7
2.9760 158.4
2.9800 200.0
2.9840 108.3
2.9880 100.0
2.9920 100.0
2.9960 33.3
3.0000 83.3
3.0040 75.0
3.0080 166.7
3.0120 133.4
3.0160 241.7
3.0200 308.4
3.0240 200.0
3.0280 366.8
3.0320 316.8
3.0360 358.5
3.0400 200.0
3.0440 291.8
3.0480 341.8
3.0520 416.8
3.0560 250.1
3.0600 258.4
3.0640 150.0
3.0680 225.1
3.0720 133.4
3.0760 125.0
3.0800 116.7
3.0840 116.7
3.0880 100.0
3.0920 83.3
3.0960 125.0
3.1000 141.7
3.1040 166.7
3.1080 191.7
3.1120 191.7
3.1160 208.4
3.1200 258.4
3.1240 366.8
3.1280 333.4
3.1320 383.5
3.1360 366.8
3.1400 308.4
3.1440 416.9
3.1480 241.7
3.1520 266.7
3.1560 166.7
3.1600 183.4
3.1640 125.0
3.1680 150.0
3.1720 91.7
3.1760 133.4
3.1800 83.3
3.1840 133.4
3.1880 108.3
3.1920 150.0
3.1960 141.7
3.2000 208.4
3.2040 266.7
3.2080 208.4
3.2120 241.7
3.2160 266.7
3.2200 300.1
3.2240 358.5
3.2280 308.4
3.2320 341.8
3.2360 291.8
3.2400 241.7
3.2440 233.4
3.2480 266.7
3.2520 208.4
3.2560 150.0
3.2600 158.4
3.2640 108.3
3.2680 75.0
3.2720 91.7
3.2760 100.0
3.2800 150.0
3.2840 166.7
3.2880 108.3
3.2920 191.7
3.2960 208.4
3.3000 225.1
3.3040 208.4
3.3080 225.1
3.3120 300.1
3.3160 275.1
3.3200 241.7
3.3240 341.8
3.3280 225.1
3.3320 175.0
3.3360 175.0
3.3400 241.7
3.3440 166.7
3.3480 183.4
3.3520 158.4
3.3560 75.0
3.3600 91.7
3.3640 100.0
3.3680 66.7
3.3720 133.4
3.3760 116.7
3.3800 100.0
3.3840 116.7
3.3880 166.7
3.3920 191.7
3.3960 175.0
3.4000 275.1
3.4040 258.4
3.4080 258.4
3.4120 183.4
3.4160 208.4
3.4200 266.7
3.4240 241.7
3.4280 183.4
3.4320 200.0
3.4360 108.3
3.4400 158.4
3.4440 200.0
3.4480 108.3
3.4520 150.0
3.4560 66.7
3.4600 75.0
3.4640 83.3
3.4680 100.0
3.4720 175.0
3.4760 108.3
3.4800 175.0
3.4840 250.1
3.4880 233.4
3.4920 233.4
3.4960 291.8
3.5000 266.7
3.5040 216.7
3.5080 300.1
3.5120 125.0
3.5160 208.4
3.5200 266.7
3.5240 141.7
3.5280 141.7
3.5320 133.4
3.5360 150.0
3.5400 133.4
3.5440 125.0
3.5480 75.0
3.5520 108.3
3.5560 83.3
3.5600 83.3
3.5640 158.4
3.5680 141.7
3.5720 191.7
3.5760 225.1
3.5800 183.4
3.5840 225.1
3.5880 183.4
3.5920 241.7
3.5960 258.4
3.6000 258.4
3.6040 233.4
3.6080 208.4
3.6120 225.1
3.6160 300.1
3.6200 141.7
3.6240 133.4
3.6280 133.4
3.6320 133.4
3.6360 116.7
3.6400 25.0
3.6440 100.0
3.6480 41.7
3.6520 158.4
3.6560 91.7
3.6600 108.3
3.6640 116.7
3.6680 150.0
3.6720 175.0
3.6760 183.4
3.6800 291.8
3.6840 208.4
3.6880 200.0
3.6920 191.7
3.6960 216.7
3.7000 208.4
3.7040 175.0
3.7080 158.4
3.7120 175.0
3.7160 133.4
3.7200 141.7
3.7240 50.0
3.7280 100.0
3.7320 41.7
3.7360 108.3
3.7400 66.7
3.7440 116.7
3.7480 41.7
3.7520 75.0
3.7560 166.7
3.7600 125.0
3.7640 133.4
3.7680 175.0
3.7720 208.4
3.7760 183.4
3.7800 200.0
3.7840 183.4
3.7880 183.4
3.7920 166.7
3.7960 183.4
3.8000 183.4
3.8040 200.0
3.8080 141.7
3.8120 91.7
3.8160 108.3
3.8200 50.0
3.8240 66.7
3.8280 100.0
3.8320 83.3
3.8360 58.3
3.8400 100.0
3.8440 75.0
3.8480 108.3
3.8520 100.0
3.8560 191.7
3.8600 116.7
3.8640 141.7
3.8680 175.0
3.8720 200.0
3.8760 200.0
3.8800 241.7
3.8840 166.7
3.8880 191.7
3.8920 125.0
3.8960 108.3
3.9000 133.4
3.9040 91.7
3.9080 66.7
3.9120 83.3
3.9160 75.0
3.9200 58.3
3.9240 41.7
3.9280 58.3
3.9320 75.0
3.9360 91.7
3.9400 108.3
3.9440 125.0
3.9480 66.7
3.9520 141.7
3.9560 175.0
3.9600 75.0
3.9640 166.7
3.9680 100.0
3.9720 125.0
3.9760 141.7
3.9800 133.4
3.9840 125.0
3.9880 100.0
3.9920 150.0
3.9960 100.0
4.0000 50.0
4.0040 41.7
4.0080 25.0
4.0120 75.0
4.0160 58.3
4.0200 33.3
4.0240 66.7
4.0280 33.3
4.0320 66.7
4.0360 66.7
4.0400 66.7
4.0440 75.0
4.0480 83.3
4.0520 141.7
4.0560 125.0
4.0600 108.3
4.0640 100.0
4.0680 125.0
4.0720 83.3
4.0760 158.4
4.0800 125.0
4.0840 133.4
4.0880 116.7
4.0920 50.0
4.0960 50.0
4.1000 8.3
4.1040 66.7
4.1080 25.0
4.1120 25.0
4.1160 58.3
4.1200 25.0
4.1240 83.3
4.1280 75.0
4.1320 66.7
4.1360 83.3
4.1400 66.7
4.1440 125.0
4.1480 75.0
4.1520 58.3
4.1560 125.0
4.1600 66.7
4.1640 66.7
4.1680 66.7
4.1720 75.0
4.1760 25.0
4.1800 50.0
4.1840 41.7
4.1880 33.3
4.1920 33.3
4.1960 58.3
4.2000 8.3
4.2040 66.7
4.2080 16.7
4.2120 33.3
4.2160 16.7
4.2200 58.3
4.2240 50.0
4.2280 50.0
4.2320 75.0
4.2360 66.7
4.2400 108.3
4.2440 41.7
4.2480 91.7
4.2520 100.0
4.2560 58.3
4.2600 58.3
4.2640 50.0
4.2680 75.0
4.2720 75.0
4.2760 16.7
4.2800 16.7
4.2840 33.3
4.2880 33.3
4.2920 66.7
4.2960 25.0
4.3000 33.3
4.3040 8.3
4.3080 33.3
4.3120 25.0
4.3160 33.3
4.3200 25.0
4.3240 33.3
4.3280 58.3
4.3320 50.0
4.3360 33.3
4.3400 16.7
4.3440 58.3
4.3480 83.3
4.3520 50.0
4.3560 25.0
4.3600 16.7
4.3640 25.0
4.3680 16.7
4.3720 33.3
4.3760 8.3
4.3800 41.7
4.3840 33.3
4.3880 33.3
4.3920 25.0
4.3960 25.0
4.4000 33.3
4.4040 50.0
4.4080 0.0
4.4120 41.7
4.4160 0.0
4.4200 16.7
4.4240 8.3
4.4280 50.0
4.4320 50.0
4.4360 41.7
4.4400 58.3
4.4440 25.0
4.4480 66.7
4.4520 33.3
4.4560 8.3
4.4600 25.0
4.4640 8.3
4.4680 16.7
4.4720 8.3
4.4760 0.0
4.4800 8.3
4.4840 25.0
4.4880 33.3
4.4920 16.7
4.4960 16.7
4.5000 0.0
4.5040 8.3
4.5080 33.3
4.5120 16.7
4.5160 33.3
4.5200 33.3
4.5240 50.0
4.5280 41.7
4.5320 33.3
4.5360 16.7
4.5400 16.7
4.5440 41.7
4.5480 0.0
4.5520 8.3
4.5560 16.7
4.5600 25.0
4.5640 8.3
4.5680 0.0
4.5720 16.7
4.5760 0.0
4.5800 0.0
4.5840 16.7
4.5880 25.0
4.5920 8.3
4.5960 33.3
4.6000 8.3
4.6040 16.7
4.6080 8.3
4.6120 25.0
4.6160 16.7
4.6200 25.0
4.6240 16.7
4.6280 25.0
4.6320 50.0
4.6360 16.7
4.6400 25.0
4.6440 8.3
4.6480 8.3
4.6520 16.7
4.6560 0.0
4.6600 0.0
4.6640 0.0
4.6680 8.3
4.6720 8.3
4.6760 0.0
4.6800 0.0
4.6840 0.0
4.6880 0.0
4.6920 16.7
4.6960 33.3
4.7000 0.0
4.7040 0.0
4.7080 41.7
4.7120 25.0
4.7160 16.7
4.7200 16.7
4.7240 33.3
4.7280 25.0
4.7320 8.3
4.7360 0.0
4.7400 25.0
4.7440 0.0
4.7480 8.3
4.7520 0.0
4.7560 8.3
4.7600 8.3
4.7640 8.3
4.7680 8.3
4.7720 0.0
4.7760 0.0
4.7800 8.3
4.7840 25.0
4.7880 8.3
4.7920 16.7
4.7960 16.7
4.8000 16.7
4.8040 8.3
4.8080 25.0
4.8120 0.0
4.8160 16.7
4.8200 16.7
4.8240 25.0
4.8280 8.3
4.8320 8.3
4.8360 8.3
4.8400 8.3
4.8440 0.0
4.8480 8.3
4.8520 16.7
4.8560 0.0
4.8600 8.3
4.8640 0.0
4.8680 16.7
4.8720 16.7
4.8760 16.7
4.8800 8.3
4.8840 0.0
4.8880 8.3
4.8920 16.7
4.8960 8.3
4.9000 0.0
4.9040 8.3
4.9080 16.7
4.9120 25.0
4.9160 8.3
4.9200 8.3
4.9240 8.3
4.9280 0.0
4.9320 16.7
4.9360 25.0
4.9400 16.7
4.9440 0.0
4.9480 8.3
4.9520 8.3
4.9560 0.0
4.9600 8.3
4.9640 25.0
4.9680 8.3
4.9720 8.3
4.9760 16.7
4.9800 0.0
4.9840 8.3
4.9880 8.3
4.9920 8.3
4.9960 41.7
5.0000 8.3
5.0040 16.7
5.0080 8.3
5.0120 8.3
5.0160 0.0
5.0200 8.3
5.0240 8.3
5.0280 0.0
5.0320 16.7
5.0360 16.7
5.0400 25.0
5.0440 0.0
5.0480 8.3
5.0520 16.7
5.0560 8.3
5.0600 25.0
5.0640 8.3
5.0680 0.0
5.0720 0.0
5.0760 0.0
5.0800 8.3
5.0840 0.0
5.0880 16.7
5.0920 0.0
5.0960 16.7
5.1000 16.7
5.1040 8.3
5.1080 8.3
5.1120 8.3
5.1160 0.0
5.1200 8.3
5.1240 8.3
5.1280 25.0
5.1320 16.7
5.1360 0.0
5.1400 0.0
5.1440 0.0
5.1480 8.3
5.1520 0.0
5.1560 0.0
5.1600 0.0
5.1640 8.3
5.1680 16.7
5.1720 8.3
5.1760 8.3
5.1800 16.7
5.1840 8.3
5.1880 0.0
5.1920 8.3
5.1960 8.3
5.2000 16.7
5.2040 0.0
5.2080 16.7
5.2120 16.7
5.2160 8.3
5.2200 8.3
5.2240 0.0
5.2280 0.0
5.2320 8.3
5.2360 16.7
5.2400 16.7
5.2440 0.0
5.2480 0.0
5.2520 0.0
5.2560 0.0
5.2600 16.7
5.2640 0.0
5.2680 0.0
5.2720 16.7
5.2760 25.0
5.2800 0.0
5.2840 8.3
5.2880 8.3
5.2920 0.0
5.2960 8.3
5.3000 8.3
5.3040 0.0
5.3080 0.0
5.3120 0.0
5.3160 8.3
5.3200 0.0
5.3240 25.0
5.3280 8.3
5.3320 0.0
5.3360 16.7
5.3400 8.3
5.3440 0.0
5.3480 8.3
5.3520 8.3
5.3560 8.3
5.3600 0.0
5.3640 0.0
5.3680 0.0
5.3720 8.3
5.3760 0.0
5.3800 0.0
5.3840 8.3
5.3880 0.0
5.3920 0.0
5.3960 16.7
5.4000 8.3
5.4040 0.0
5.4080 0.0
5.4120 8.3
5.4160 8.3
5.4200 0.0
5.4240 0.0
5.4280 0.0
5.4320 0.0
5.4360 0.0
5.4400 0.0
5.4440 0.0
5.4480 8.3
5.4520 0.0
5.4560 8.3
5.4600 25.0
5.4640 0.0
5.4680 16.7
5.4720 25.0
5.4760 8.3
5.4800 16.7
5.4840 16.7
5.4880 8.3
5.4920 8.3
5.4960 8.3
5.5000 16.7
5.5040 8.3
5.5080 0.0
5.5120 8.3
5.5160 16.7
5.5200 8.3
5.5240 0.0
5.5280 8.3
5.5320 0.0
5.5360 8.3
5.5400 0.0
5.5440 25.0
5.5480 8.3
5.5520 0.0
5.5560 0.0
5.5600 16.7
5.5640 8.3
5.5680 8.3
5.5720 0.0
5.5760 8.3
5.5800 0.0
5.5840 0.0
5.5880 8.3
5.5920 0.0
5.5960 16.7
5.6000 8.3
5.6040 0.0
5.6080 0.0
5.6120 0.0
5.6160 8.3
5.6200 8.3
5.6240 0.0
5.6280 0.0
5.6320 8.3
5.6360 0.0
5.6400 8.3
5.6440 16.7
5.6480 8.3
5.6520 8.3
5.6560 8.3
5.6600 0.0
5.6640 0.0
5.6680 8.3
5.6720 8.3
5.6760 16.7
5.6800 0.0
5.6840 8.3
5.6880 25.0
5.6920 8.3
5.6960 8.3
5.7000 16.7
5.7040 0.0
5.7080 16.7
5.7120 0.0
5.7160 0.0
5.7200 8.3
5.7240 0.0
5.7280 0.0
5.7320 8.3
5.7360 0.0
5.7400 0.0
5.7440 0.0
5.7480 0.0
5.7520 0.0
5.7560 0.0
5.7600 0.0
5.7640 0.0
5.7680 8.3
5.7720 0.0
5.7760 0.0
5.7800 8.3
5.7840 16.7
5.7880 8.3
5.7920 0.0
5.7960 0.0
5.8000 0.0
5.8040 0.0
5.8080 16.7
5.8120 8.3
5.8160 0.0
5.8200 8.3
5.8240 0.0
5.8280 0.0
5.8320 8.3
5.8360 0.0
5.8400 16.7
5.8440 0.0
5.8480 0.0
5.8520 8.3
5.8560 16.7
5.8600 8.3
5.8640 0.0
5.8680 8.3
5.8720 8.3
5.8760 8.3
5.8800 0.0
5.8840 16.7
5.8880 8.3
5.8920 8.3
5.8960 8.3
5.9000 0.0
5.9040 8.3
5.9080 0.0
5.9120 0.0
5.9160 0.0
5.9200 0.0
5.9240 8.3
5.9280 0.0
5.9320 0.0
5.9360 16.7
5.9400 16.7
5.9440 0.0
5.9480 16.7
5.9520 0.0
5.9560 0.0
5.9600 16.7
5.9640 8.3
5.9680 8.3
5.9720 0.0
5.9760 8.3
5.9800 0.0
5.9840 8.3
5.9880 25.0
5.9920 0.0
5.9960 8.3
6.0000 0.0
