;Bundle             = 1
;Partition          = 1
;Operator           = 
;Gonio              = ATX-G
;Memo               = 
;IncidentMonochro   = ½Ø¯ÄºØÒ°¼®Ý
;CounterMonochro    = ŽóŒõ½Ø¯Ä
;Attachment         = XY-STAGE
;Filter             = 
;SlitName0          = S1 10*1
;SlitName1          = S2 5*0.05
;SlitName2          = ATT 
;SlitName3          = RS 5*0.1
;SlitName4          = GS nothing
;Counter            = SC-70
;KAlpha1            = 1.5403
;KAlpha2            = 1.5434
;KBata              = 0
;Target             = Cu
;KV                 = 50
;mA                 = 300
;AxisName           = 2Theta/Omega
;MeasurementMethod = Continuation
;Start              = 0.2
;Finish             = 6
;Speed              = 0.2
;FixedTime          = 
;Width              = 0.004
;FullScale         = 1e+08
;Comment            = 
;SampleName         = 
;Xunit              = deg.
;Yunit              = CPS
0.2000 4287194.0
0.2040 4377921.0
0.2080 4492632.0
0.2120 4612081.0
0.2160 4717409.0
0.2200 4844832.0
0.2240 4982378.5
0.2280 5145140.0
0.2320 5163665.5
0.2360 5252242.5
0.2400 5418062.5
0.2440 5564929.0
0.2480 5687759.5
0.2520 5756611.0
0.2560 5816069.5
0.2600 5947354.0
0.2640 6168718.0
0.2680 6220881.0
0.2720 6333630.0
0.2760 6483773.5
0.2800 6531459.5
0.2840 6618147.5
0.2880 6730499.5
0.2920 6803484.0
0.2960 6928120.0
0.3000 7010403.5
0.3040 7152657.0
0.3080 7263903.0
0.3120 7316828.0
0.3160 7405968.5
0.3200 7427458.0
0.3240 7546009.5
0.3280 7640692.0
0.3320 7665208.0
0.3360 7721452.0
0.3400 7801053.5
0.3440 7894003.5
0.3480 7976777.5
0.3520 8078494.5
0.3560 8065563.5
0.3600 8160475.5
0.3640 8175734.0
0.3680 8246130.5
0.3720 8323842.5
0.3760 8278192.0
0.3800 8393331.0
0.3840 8428879.0
0.3880 8496352.0
0.3920 8531712.0
0.3960 8519825.0
0.4000 8608068.0
0.4040 8665762.0
0.4080 8672588.0
0.4120 8694004.0
0.4160 8671524.0
0.4200 8727329.0
0.4240 8737213.0
0.4280 8745531.0
0.4320 8715869.0
0.4360 8799698.0
0.4400 8752106.0
0.4440 8835736.0
0.4480 8788395.0
0.4520 8825393.0
0.4560 8780932.0
0.4600 8803288.0
0.4640 8833690.0
0.4680 8781506.0
0.4720 8774462.0
0.4760 8738194.0
0.4800 8717164.0
0.4840 8721599.0
0.4880 8647895.0
0.4920 8671962.0
0.4960 8579022.0
0.5000 8531368.0
0.5040 8490216.0
0.5080 8490216.0
0.5120 8373292.0
0.5160 8368668.5
0.5200 8279601.0
0.5240 8249167.5
0.5280 8151166.0
0.5320 8068266.5
0.5360 7985158.5
0.5400 7896498.0
0.5440 7911067.5
0.5480 7803266.0
0.5520 7660125.5
0.5560 7543254.0
0.5600 7508979.5
0.5640 7488523.5
0.5680 7257077.5
0.5720 7184322.5
0.5760 7043665.5
0.5800 6970994.5
0.5840 6873953.0
0.5880 6721795.0
0.5920 6531292.5
0.5960 6493907.5
0.6000 6381962.5
0.6040 6257973.5
0.6080 6056251.5
0.6120 5927868.5
0.6160 5842777.0
0.6200 5736301.0
0.6240 5641462.0
0.6280 5427330.0
0.6320 5342604.5
0.6360 5165513.0
0.6400 4947060.5
0.6440 4949638.0
0.6480 4672426.5
0.6520 4511971.5
0.6560 4431848.0
0.6600 4232359.0
0.6640 4133272.2
0.6680 3948687.2
0.6720 3798387.0
0.6760 3689896.5
0.6800 3539032.8
0.6840 3409480.8
0.6880 3076594.8
0.6920 2914876.0
0.6960 2756026.5
0.7000 2672496.2
0.7040 2596002.2
0.7080 2437752.2
0.7120 2314940.0
0.7160 2228158.0
0.7200 2122415.2
0.7240 2015411.0
0.7280 1888482.0
0.7320 1788441.9
0.7360 1687167.0
0.7400 1589200.2
0.7440 1506819.4
0.7480 1377503.1
0.7520 1290576.1
0.7560 1196401.6
0.7600 1110535.1
0.7640 1032970.1
0.7680 931578.8
0.7720 857708.9
0.7760 802727.7
0.7800 734594.4
0.7840 679096.2
0.7880 604889.0
0.7920 554214.0
0.7960 510640.6
0.8000 462965.0
0.8040 424065.6
0.8080 379035.3
0.8120 347957.5
0.8160 341352.7
0.8200 309690.6
0.8240 284625.4
0.8280 253940.3
0.8320 235504.9
0.8360 216825.8
0.8400 198097.7
0.8440 185363.0
0.8480 165585.6
0.8520 154075.7
0.8560 143210.8
0.8600 133693.7
0.8640 126050.2
0.8680 113263.0
0.8720 105383.3
0.8760 98817.1
0.8800 91538.5
0.8840 85847.5
0.8880 76683.6
0.8920 71987.6
0.8960 67471.2
0.9000 63191.0
0.9040 59198.8
0.9080 53836.1
0.9120 51140.3
0.9160 47962.5
0.9200 44172.0
0.9240 42502.2
0.9280 38749.6
0.9320 36611.8
0.9360 33707.2
0.9400 32217.0
0.9440 30382.6
0.9480 28354.4
0.9520 26724.3
0.9560 25295.7
0.9600 24003.1
0.9640 22755.7
0.9680 21760.9
0.9720 20940.4
0.9760 19767.1
0.9800 18638.8
0.9840 17803.2
0.9880 16607.0
0.9920 16133.1
0.9960 15274.4
1.0000 14699.4
1.0040 13859.4
1.0080 13133.6
1.0120 12903.5
1.0160 12424.7
1.0200 11994.4
1.0240 11658.2
1.0280 11088.6
1.0320 10756.2
1.0360 10200.4
1.0400 9852.6
1.0440 9502.3
1.0480 8845.1
1.0520 8608.3
1.0560 8262.6
1.0600 7734.1
1.0640 7558.9
1.0680 7349.7
1.0720 7208.5
1.0760 6958.2
1.0800 6710.8
1.0840 6670.9
1.0880 6441.4
1.0920 6337.5
1.0960 5923.9
1.1000 5956.1
1.1040 5781.4
1.1080 5440.0
1.1120 5232.0
1.1160 5037.5
1.1200 4759.7
1.1240 4513.2
1.1280 4508.1
1.1320 4211.3
1.1360 3984.4
1.1400 3967.6
1.1440 3804.8
1.1480 3840.8
1.1520 3821.5
1.1560 3641.8
1.1600 3670.4
1.1640 3576.3
1.1680 3424.4
1.1720 3348.1
1.1760 3137.5
1.1800 3020.1
1.1840 2858.3
1.1880 2705.8
1.1920 2555.8
1.1960 2427.7
1.2000 2324.7
1.2040 2232.6
1.2080 2106.2
1.2120 2091.1
1.2160 2131.3
1.2200 2090.3
1.2240 2187.4
1.2280 2085.3
1.2320 2086.9
1.2360 2031.7
1.2400 1921.2
1.2440 2001.6
1.2480 1841.8
1.2520 1655.3
1.2560 1634.4
1.2600 1536.6
1.2640 1361.1
1.2680 1341.0
1.2720 1233.2
1.2760 1195.6
1.2800 1139.7
1.2840 1107.9
1.2880 1163.9
1.2920 1209.8
1.2960 1173.9
1.3000 1251.6
1.3040 1244.1
1.3080 1219.8
1.3120 1148.9
1.3160 1139.7
1.3200 1114.6
1.3240 1009.4
1.3280 965.1
1.3320 863.3
1.3360 782.3
1.3400 773.1
1.3440 689.7
1.3480 687.2
1.3520 663.0
1.3560 671.3
1.3600 669.6
1.3640 704.7
1.3680 660.4
1.3720 689.6
1.3760 691.3
1.3800 723.9
1.3840 721.4
1.3880 755.6
1.3920 704.7
1.3960 698.8
1.4000 585.3
1.4040 586.2
1.4080 547.8
1.4120 471.1
1.4160 444.4
1.4200 421.0
1.4240 385.2
1.4280 326.8
1.4320 364.3
1.4360 367.6
1.4400 399.3
1.4440 420.2
1.4480 426.0
1.4520 435.2
1.4560 466.1
1.4600 449.4
1.4640 466.9
1.4680 466.9
1.4720 448.5
1.4760 412.7
1.4800 402.7
1.4840 376.8
1.4880 323.4
1.4920 306.8
1.4960 262.6
1.5000 225.9
1.5040 213.4
1.5080 206.7
1.5120 210.0
1.5160 217.5
1.5200 245.1
1.5240 260.9
1.5280 271.7
1.5320 281.7
1.5360 319.3
1.5400 314.3
1.5440 330.9
1.5480 304.3
1.5520 307.6
1.5560 292.6
1.5600 271.7
1.5640 238.4
1.5680 218.4
1.5720 207.5
1.5760 188.4
1.5800 152.5
1.5840 122.5
1.5880 120.8
1.5920 148.4
1.5960 145.9
1.6000 173.4
1.6040 160.9
1.6080 176.7
1.6120 196.7
1.6160 189.2
1.6200 205.0
1.6240 205.9
1.6280 199.2
1.6320 204.2
1.6360 193.4
1.6400 185.0
1.6440 151.7
1.6480 145.0
1.6520 125.0
1.6560 117.5
1.6600 107.5
1.6640 95.0
1.6680 105.0
1.6720 99.2
1.6760 83.3
1.6800 109.2
1.6840 94.2
1.6880 126.7
1.6920 135.9
1.6960 142.5
1.7000 149.2
1.7040 160.0
1.7080 162.5
1.7120 149.2
1.7160 131.7
1.7200 135.9
1.7240 115.8
1.7280 115.8
1.7320 117.5
1.7360 81.7
1.7400 84.2
1.7440 69.2
1.7480 52.5
1.7520 64.2
1.7560 56.7
1.7600 68.3
1.7640 68.3
1.7680 97.5
1.7720 100.8
1.7760 86.7
1.7800 121.7
1.7840 106.7
1.7880 112.5
1.7920 102.5
1.7960 114.2
1.8000 112.5
1.8040 88.3
1.8080 89.2
1.8120 85.8
1.8160 80.0
1.8200 63.3
1.8240 67.5
1.8280 48.3
1.8320 48.3
1.8360 65.8
1.8400 46.7
1.8440 45.0
1.8480 60.8
1.8520 57.5
1.8560 64.2
1.8600 75.0
1.8640 79.2
1.8680 80.8
1.8720 91.7
1.8760 103.3
1.8800 83.3
1.8840 92.5
1.8880 73.3
1.8920 85.0
1.8960 75.0
1.9000 58.3
1.9040 53.3
1.9080 64.2
1.9120 53.3
1.9160 37.5
1.9200 43.3
1.9240 35.8
1.9280 50.0
1.9320 46.7
1.9360 59.2
1.9400 49.2
1.9440 59.2
1.9480 62.5
1.9520 66.7
1.9560 60.8
1.9600 62.5
1.9640 60.8
1.9680 70.0
1.9720 80.0
1.9760 65.0
1.9800 58.3
1.9840 60.0
1.9880 59.2
1.9920 47.5
1.9960 39.2
2.0000 47.5
2.0040 50.8
2.0080 44.2
2.0120 40.0
2.0160 45.0
2.0200 40.8
2.0240 56.7
2.0280 34.2
2.0320 64.2
2.0360 50.0
2.0400 55.8
2.0440 46.7
2.0480 51.7
2.0520 47.5
2.0560 42.5
2.0600 53.3
2.0640 48.3
2.0680 46.7
2.0720 50.8
2.0760 55.0
2.0800 52.5
2.0840 45.0
2.0880 42.5
2.0920 58.3
2.0960 47.5
2.1000 49.2
2.1040 50.8
2.1080 50.8
2.1120 49.2
2.1160 50.0
2.1200 45.0
2.1240 42.5
2.1280 40.0
2.1320 45.0
2.1360 39.2
2.1400 40.0
2.1440 55.8
2.1480 44.2
2.1520 45.0
2.1560 41.7
2.1600 48.3
2.1640 46.7
2.1680 49.2
2.1720 43.3
2.1760 36.7
2.1800 54.2
2.1840 53.3
2.1880 53.3
2.1920 54.2
2.1960 43.3
2.2000 42.5
2.2040 48.3
2.2080 39.2
2.2120 45.0
2.2160 40.8
2.2200 35.0
2.2240 48.3
2.2280 45.8
2.2320 35.8
2.2360 49.2
2.2400 36.7
2.2440 39.2
2.2480 42.5
2.2520 34.2
2.2560 55.8
2.2600 41.7
2.2640 71.7
2.2680 54.2
2.2720 56.7
2.2760 53.3
2.2800 48.3
2.2840 42.5
2.2880 42.5
2.2920 45.8
2.2960 41.7
2.3000 40.8
2.3040 36.7
2.3080 35.0
2.3120 33.3
2.3160 38.3
2.3200 31.7
2.3240 25.8
2.3280 39.2
2.3320 36.7
2.3360 35.8
2.3400 48.3
2.3440 53.3
2.3480 48.3
2.3520 55.8
2.3560 49.2
2.3600 61.7
2.3640 46.7
2.3680 41.7
2.3720 52.5
2.3760 34.2
2.3800 47.5
2.3840 36.7
2.3880 30.0
2.3920 34.2
2.3960 32.5
2.4000 23.3
2.4040 32.5
2.4080 23.3
2.4120 31.7
2.4160 46.7
2.4200 34.2
2.4240 36.7
2.4280 47.5
2.4320 47.5
2.4360 61.7
2.4400 55.0
2.4440 45.0
2.4480 59.2
2.4520 50.8
2.4560 51.7
2.4600 60.0
2.4640 49.2
2.4680 35.8
2.4720 32.5
2.4760 40.8
2.4800 28.3
2.4840 25.0
2.4880 33.3
2.4920 35.0
2.4960 29.2
2.5000 25.0
2.5040 31.7
2.5080 42.5
2.5120 30.0
2.5160 43.3
2.5200 48.3
2.5240 60.0
2.5280 45.0
2.5320 46.7
2.5360 69.2
2.5400 54.2
2.5440 44.2
2.5480 44.2
2.5520 47.5
2.5560 55.8
2.5600 46.7
2.5640 41.7
2.5680 29.2
2.5720 41.7
2.5760 27.5
2.5800 25.0
2.5840 33.3
2.5880 37.5
2.5920 36.7
2.5960 34.2
2.6000 31.7
2.6040 52.5
2.6080 40.0
2.6120 50.0
2.6160 46.7
2.6200 60.0
2.6240 52.5
2.6280 48.3
2.6320 46.7
2.6360 64.2
2.6400 45.8
2.6440 43.3
2.6480 40.0
2.6520 28.3
2.6560 36.7
2.6600 24.2
2.6640 30.8
2.6680 34.2
2.6720 32.5
2.6760 34.2
2.6800 34.2
2.6840 35.0
2.6880 39.2
2.6920 30.0
2.6960 39.2
2.7000 45.0
2.7040 47.5
2.7080 65.0
2.7120 54.2
2.7160 59.2
2.7200 65.0
2.7240 55.8
2.7280 46.7
2.7320 37.5
2.7360 40.8
2.7400 48.3
2.7440 40.0
2.7480 35.8
2.7520 37.5
2.7560 30.8
2.7600 35.8
2.7640 34.2
2.7680 31.7
2.7720 35.0
2.7760 37.5
2.7800 37.5
2.7840 43.3
2.7880 60.0
2.7920 44.2
2.7960 72.5
2.8000 50.0
2.8040 68.3
2.8080 65.8
2.8120 51.7
2.8160 60.0
2.8200 39.2
2.8240 47.5
2.8280 42.5
2.8320 45.8
2.8360 37.5
2.8400 39.2
2.8440 34.2
2.8480 26.7
2.8520 36.7
2.8560 39.2
2.8600 36.7
2.8640 37.5
2.8680 43.3
2.8720 49.2
2.8760 55.8
2.8800 59.2
2.8840 54.2
2.8880 75.8
2.8920 75.0
2.8960 47.5
2.9000 70.8
2.9040 50.8
2.9080 56.7
2.9120 45.0
2.9160 54.2
2.9200 50.8
2.9240 54.2
2.9280 35.0
2.9320 40.0
2.9360 30.0
2.9400 32.5
2.9440 39.2
2.9480 36.7
2.9520 41.7
2.9560 40.8
2.9600 40.0
2.9640 53.3
2.9680 44.2
2.9720 59.2
2.9760 70.0
2.9800 53.3
2.9840 76.7
2.9880 70.0
2.9920 71.7
2.9960 75.8
3.0000 60.0
3.0040 52.5
3.0080 45.0
3.0120 56.7
3.0160 47.5
3.0200 35.8
3.0240 47.5
3.0280 37.5
3.0320 39.2
3.0360 30.0
3.0400 45.0
3.0440 42.5
3.0480 57.5
3.0520 33.3
3.0560 42.5
3.0600 45.8
3.0640 65.8
3.0680 67.5
3.0720 89.2
3.0760 63.3
3.0800 69.2
3.0840 61.7
3.0880 65.8
3.0920 57.5
3.0960 61.7
3.1000 61.7
3.1040 48.3
3.1080 40.8
3.1120 45.8
3.1160 36.7
3.1200 38.3
3.1240 55.0
3.1280 43.3
3.1320 49.2
3.1360 40.8
3.1400 42.5
3.1440 52.5
3.1480 43.3
3.1520 54.2
3.1560 62.5
3.1600 73.3
3.1640 68.3
3.1680 67.5
3.1720 66.7
3.1760 50.0
3.1800 85.8
3.1840 67.5
3.1880 47.5
3.1920 50.8
3.1960 48.3
3.2000 36.7
3.2040 51.7
3.2080 40.0
3.2120 38.3
3.2160 45.0
3.2200 42.5
3.2240 55.8
3.2280 63.3
3.2320 45.0
3.2360 48.3
3.2400 55.0
3.2440 52.5
3.2480 67.5
3.2520 57.5
3.2560 76.7
3.2600 67.5
3.2640 71.7
3.2680 73.3
3.2720 68.3
3.2760 63.3
3.2800 50.0
3.2840 50.0
3.2880 40.0
3.2920 49.2
3.2960 35.8
3.3000 29.2
3.3040 39.2
3.3080 47.5
3.3120 50.8
3.3160 50.8
3.3200 45.0
3.3240 54.2
3.3280 64.2
3.3320 55.8
3.3360 69.2
3.3400 75.8
3.3440 64.2
3.3480 70.0
3.3520 73.3
3.3560 64.2
3.3600 86.7
3.3640 60.8
3.3680 69.2
3.3720 57.5
3.3760 49.2
3.3800 53.3
3.3840 50.8
3.3880 55.0
3.3920 47.5
3.3960 36.7
3.4000 44.2
3.4040 41.7
3.4080 50.8
3.4120 72.5
3.4160 65.8
3.4200 65.0
3.4240 55.8
3.4280 67.5
3.4320 86.7
3.4360 75.0
3.4400 84.2
3.4440 70.8
3.4480 62.5
3.4520 60.0
3.4560 84.2
3.4600 60.0
3.4640 55.8
3.4680 62.5
3.4720 51.7
3.4760 42.5
3.4800 42.5
3.4840 49.2
3.4880 45.0
3.4920 59.2
3.4960 48.3
3.5000 52.5
3.5040 48.3
3.5080 61.7
3.5120 49.2
3.5160 67.5
3.5200 75.8
3.5240 75.8
3.5280 69.2
3.5320 72.5
3.5360 82.5
3.5400 61.7
3.5440 84.2
3.5480 60.0
3.5520 80.0
3.5560 45.0
3.5600 55.0
3.5640 44.2
3.5680 57.5
3.5720 50.8
3.5760 50.8
3.5800 37.5
3.5840 47.5
3.5880 49.2
3.5920 58.3
3.5960 61.7
3.6000 50.8
3.6040 59.2
3.6080 77.5
3.6120 66.7
3.6160 87.5
3.6200 80.8
3.6240 78.3
3.6280 60.0
3.6320 81.7
3.6360 71.7
3.6400 59.2
3.6440 52.5
3.6480 59.2
3.6520 65.0
3.6560 39.2
3.6600 62.5
3.6640 50.8
3.6680 52.5
3.6720 48.3
3.6760 55.0
3.6800 53.3
3.6840 47.5
3.6880 61.7
3.6920 72.5
3.6960 68.3
3.7000 82.5
3.7040 70.0
3.7080 74.2
3.7120 84.2
3.7160 74.2
3.7200 62.5
3.7240 68.3
3.7280 79.2
3.7320 70.8
3.7360 59.2
3.7400 49.2
3.7440 50.8
3.7480 50.0
3.7520 45.8
3.7560 35.8
3.7600 52.5
3.7640 57.5
3.7680 51.7
3.7720 57.5
3.7760 57.5
3.7800 61.7
3.7840 75.0
3.7880 60.8
3.7920 60.8
3.7960 63.3
3.8000 74.2
3.8040 69.2
3.8080 70.8
3.8120 74.2
3.8160 73.3
3.8200 53.3
3.8240 62.5
3.8280 60.8
3.8320 64.2
3.8360 47.5
3.8400 50.0
3.8440 48.3
3.8480 56.7
3.8520 40.0
3.8560 50.0
3.8600 40.8
3.8640 37.5
3.8680 64.2
3.8720 54.2
3.8760 65.8
3.8800 60.0
3.8840 75.0
3.8880 91.7
3.8920 73.3
3.8960 74.2
3.9000 82.5
3.9040 75.8
3.9080 61.7
3.9120 56.7
3.9160 57.5
3.9200 51.7
3.9240 44.2
3.9280 46.7
3.9320 48.3
3.9360 55.0
3.9400 38.3
3.9440 46.7
3.9480 43.3
3.9520 35.0
3.9560 49.2
3.9600 63.3
3.9640 55.8
3.9680 59.2
3.9720 62.5
3.9760 69.2
3.9800 73.3
3.9840 63.3
3.9880 62.5
3.9920 66.7
3.9960 68.3
4.0000 73.3
4.0040 65.0
4.0080 61.7
4.0120 60.0
4.0160 68.3
4.0200 41.7
4.0240 46.7
4.0280 40.0
4.0320 35.0
4.0360 50.0
4.0400 42.5
4.0440 51.7
4.0480 42.5
4.0520 60.8
4.0560 45.8
4.0600 60.8
4.0640 64.2
4.0680 60.0
4.0720 64.2
4.0760 65.8
4.0800 55.8
4.0840 70.0
4.0880 68.3
4.0920 56.7
4.0960 57.5
4.1000 54.2
4.1040 44.2
4.1080 35.8
4.1120 45.8
4.1160 37.5
4.1200 34.2
4.1240 41.7
4.1280 46.7
4.1320 35.0
4.1360 50.8
4.1400 44.2
4.1440 38.3
4.1480 63.3
4.1520 56.7
4.1560 48.3
4.1600 55.0
4.1640 47.5
4.1680 42.5
4.1720 41.7
4.1760 55.0
4.1800 50.8
4.1840 46.7
4.1880 39.2
4.1920 50.8
4.1960 41.7
4.2000 40.8
4.2040 45.8
4.2080 33.3
4.2120 35.8
4.2160 32.5
4.2200 33.3
4.2240 37.5
4.2280 52.5
4.2320 40.8
4.2360 35.8
4.2400 40.0
4.2440 41.7
4.2480 35.8
4.2520 50.8
4.2560 45.8
4.2600 57.5
4.2640 48.3
4.2680 40.8
4.2720 38.3
4.2760 48.3
4.2800 35.8
4.2840 34.2
4.2880 30.0
4.2920 33.3
4.2960 26.7
4.3000 27.5
4.3040 34.2
4.3080 34.2
4.3120 35.8
4.3160 32.5
4.3200 41.7
4.3240 36.7
4.3280 39.2
4.3320 34.2
4.3360 40.8
4.3400 37.5
4.3440 47.5
4.3480 42.5
4.3520 31.7
4.3560 40.0
4.3600 39.2
4.3640 39.2
4.3680 36.7
4.3720 35.0
4.3760 33.3
4.3800 34.2
4.3840 35.0
4.3880 30.0
4.3920 29.2
4.3960 25.0
4.4000 33.3
4.4040 37.5
4.4080 23.3
4.4120 31.7
4.4160 31.7
4.4200 46.7
4.4240 42.5
4.4280 40.0
4.4320 38.3
4.4360 40.8
4.4400 35.8
4.4440 33.3
4.4480 35.8
4.4520 40.0
4.4560 31.7
4.4600 22.5
4.4640 30.0
4.4680 27.5
4.4720 26.7
4.4760 31.7
4.4800 20.0
4.4840 22.5
4.4880 22.5
4.4920 23.3
4.4960 20.8
4.5000 24.2
4.5040 19.2
4.5080 28.3
4.5120 32.5
4.5160 26.7
4.5200 25.0
4.5240 25.8
4.5280 29.2
4.5320 25.8
4.5360 35.0
4.5400 32.5
4.5440 29.2
4.5480 22.5
4.5520 30.0
4.5560 33.3
4.5600 20.8
4.5640 25.8
4.5680 27.5
4.5720 26.7
4.5760 20.8
4.5800 18.3
4.5840 25.8
4.5880 25.0
4.5920 25.0
4.5960 28.3
4.6000 22.5
4.6040 25.0
4.6080 27.5
4.6120 27.5
4.6160 27.5
4.6200 22.5
4.6240 29.2
4.6280 28.3
4.6320 25.8
4.6360 30.0
4.6400 24.2
4.6440 24.2
4.6480 21.7
4.6520 19.2
4.6560 18.3
4.6600 25.0
4.6640 20.0
4.6680 25.0
4.6720 33.3
4.6760 18.3
4.6800 20.8
4.6840 24.2
4.6880 20.0
4.6920 19.2
4.6960 17.5
4.7000 30.0
4.7040 30.0
4.7080 20.8
4.7120 27.5
4.7160 32.5
4.7200 24.2
4.7240 23.3
4.7280 24.2
4.7320 20.8
4.7360 30.0
4.7400 20.0
4.7440 18.3
4.7480 25.0
4.7520 28.3
4.7560 20.0
4.7600 22.5
4.7640 20.8
4.7680 16.7
4.7720 25.0
4.7760 15.0
4.7800 12.5
4.7840 28.3
4.7880 28.3
4.7920 21.7
4.7960 21.7
4.8000 22.5
4.8040 31.7
4.8080 21.7
4.8120 19.2
4.8160 23.3
4.8200 32.5
4.8240 26.7
4.8280 23.3
4.8320 20.8
4.8360 17.5
4.8400 20.0
4.8440 15.8
4.8480 20.8
4.8520 14.2
4.8560 19.2
4.8600 15.8
4.8640 17.5
4.8680 24.2
4.8720 25.8
4.8760 14.2
4.8800 24.2
4.8840 20.8
4.8880 14.2
4.8920 18.3
4.8960 21.7
4.9000 20.0
4.9040 26.7
4.9080 22.5
4.9120 21.7
4.9160 18.3
4.9200 14.2
4.9240 22.5
4.9280 15.0
4.9320 15.0
4.9360 21.7
4.9400 20.0
4.9440 15.0
4.9480 18.3
4.9520 14.2
4.9560 7.5
4.9600 12.5
4.9640 18.3
4.9680 17.5
4.9720 23.3
4.9760 15.0
4.9800 21.7
4.9840 23.3
4.9880 20.0
4.9920 16.7
4.9960 24.2
5.0000 16.7
5.0040 18.3
5.0080 14.2
5.0120 20.8
5.0160 16.7
5.0200 21.7
5.0240 20.8
5.0280 25.0
5.0320 20.0
5.0360 26.7
5.0400 11.7
5.0440 19.2
5.0480 14.2
5.0520 20.8
5.0560 15.0
5.0600 14.2
5.0640 11.7
5.0680 18.3
5.0720 24.2
5.0760 18.3
5.0800 24.2
5.0840 13.3
5.0880 15.8
5.0920 20.0
5.0960 25.8
5.1000 18.3
5.1040 11.7
5.1080 22.5
5.1120 13.3
5.1160 19.2
5.1200 15.0
5.1240 11.7
5.1280 19.2
5.1320 16.7
5.1360 14.2
5.1400 8.3
5.1440 10.0
5.1480 17.5
5.1520 20.0
5.1560 22.5
5.1600 13.3
5.1640 14.2
5.1680 14.2
5.1720 18.3
5.1760 12.5
5.1800 7.5
5.1840 17.5
5.1880 15.0
5.1920 15.8
5.1960 18.3
5.2000 15.8
5.2040 16.7
5.2080 12.5
5.2120 18.3
5.2160 12.5
5.2200 9.2
5.2240 6.7
5.2280 12.5
5.2320 15.8
5.2360 15.8
5.2400 14.2
5.2440 19.2
5.2480 18.3
5.2520 15.8
5.2560 17.5
5.2600 24.2
5.2640 18.3
5.2680 17.5
5.2720 12.5
5.2760 26.7
5.2800 18.3
5.2840 12.5
5.2880 12.5
5.2920 15.8
5.2960 12.5
5.3000 13.3
5.3040 11.7
5.3080 21.7
5.3120 12.5
5.3160 21.7
5.3200 19.2
5.3240 14.2
5.3280 13.3
5.3320 18.3
5.3360 15.8
5.3400 9.2
5.3440 14.2
5.3480 17.5
5.3520 12.5
5.3560 16.7
5.3600 13.3
5.3640 13.3
5.3680 15.0
5.3720 12.5
5.3760 14.2
5.3800 21.7
5.3840 17.5
5.3880 16.7
5.3920 15.8
5.3960 11.7
5.4000 13.3
5.4040 20.0
5.4080 16.7
5.4120 12.5
5.4160 15.8
5.4200 15.0
5.4240 14.2
5.4280 13.3
5.4320 10.0
5.4360 15.8
5.4400 14.2
5.4440 14.2
5.4480 12.5
5.4520 15.8
5.4560 17.5
5.4600 13.3
5.4640 9.2
5.4680 9.2
5.4720 10.0
5.4760 9.2
5.4800 9.2
5.4840 8.3
5.4880 14.2
5.4920 13.3
5.4960 17.5
5.5000 15.8
5.5040 9.2
5.5080 13.3
5.5120 9.2
5.5160 12.5
5.5200 10.8
5.5240 15.8
5.5280 13.3
5.5320 15.8
5.5360 8.3
5.5400 17.5
5.5440 15.0
5.5480 14.2
5.5520 10.8
5.5560 15.8
5.5600 11.7
5.5640 18.3
5.5680 11.7
5.5720 11.7
5.5760 14.2
5.5800 12.5
5.5840 12.5
5.5880 13.3
5.5920 12.5
5.5960 11.7
5.6000 9.2
5.6040 15.0
5.6080 11.7
5.6120 13.3
5.6160 15.8
5.6200 10.8
5.6240 10.0
5.6280 21.7
5.6320 13.3
5.6360 15.8
5.6400 10.8
5.6440 12.5
5.6480 10.8
5.6520 15.8
5.6560 7.5
5.6600 15.0
5.6640 14.2
5.6680 12.5
5.6720 8.3
5.6760 12.5
5.6800 13.3
5.6840 14.2
5.6880 13.3
5.6920 8.3
5.6960 16.7
5.7000 11.7
5.7040 12.5
5.7080 10.8
5.7120 14.2
5.7160 12.5
5.7200 19.2
5.7240 17.5
5.7280 15.8
5.7320 8.3
5.7360 18.3
5.7400 10.0
5.7440 12.5
5.7480 15.8
5.7520 14.2
5.7560 13.3
5.7600 5.8
5.7640 17.5
5.7680 12.5
5.7720 23.3
5.7760 7.5
5.7800 15.0
5.7840 15.0
5.7880 13.3
5.7920 18.3
5.7960 14.2
5.8000 20.8
5.8040 16.7
5.8080 7.5
5.8120 15.8
5.8160 11.7
5.8200 12.5
5.8240 13.3
5.8280 15.0
5.8320 17.5
5.8360 15.0
5.8400 10.8
5.8440 10.8
5.8480 16.7
5.8520 10.8
5.8560 15.0
5.8600 11.7
5.8640 10.8
5.8680 15.8
5.8720 10.0
5.8760 8.3
5.8800 14.2
5.8840 10.8
5.8880 11.7
5.8920 15.8
5.8960 16.7
5.9000 10.0
5.9040 13.3
5.9080 13.3
5.9120 17.5
5.9160 9.2
5.9200 10.0
5.9240 14.2
5.9280 11.7
5.9320 15.0
5.9360 12.5
5.9400 15.0
5.9440 11.7
5.9480 13.3
5.9520 13.3
5.9560 12.5
5.9600 16.7
5.9640 15.0
5.9680 12.5
5.9720 16.7
5.9760 15.8
5.9800 16.7
5.9840 10.8
5.9880 17.5
5.9920 12.5
5.9960 11.7
6.0000 11.7
