;Bundle             = 1
;Partition          = 1
;Operator           = 
;Gonio              = ATX-G
;Memo               = 
;IncidentMonochro   = ½Ø¯ÄºØÒ°¼®Ý
;CounterMonochro    = ŽóŒõ½Ø¯Ä
;Attachment         = XY-STAGE
;Filter             = 
;SlitName0          = S1 10*1
;SlitName1          = S2 2*0.05
;SlitName2          = ATT 
;SlitName3          = RS 2*0.1
;SlitName4          = GS nothing
;Counter            = SC-70
;KAlpha1            = 1.5403
;KAlpha2            = 1.5434
;KBata              = 0
;Target             = Cu
;KV                 = 50
;mA                 = 300
;AxisName           = 2Theta/Omega
;MeasurementMethod = Continuation
;Start              = 0.2
;Finish             = 6
;Speed              = 0.2
;FixedTime          = 
;Width              = 0.004
;FullScale         = 709000
;Comment            = 0.35
;SampleName         = 
;Xunit              = deg.
;Yunit              = CPS
0.2000 333329.2
0.2040 345186.5
0.2080 356498.0
0.2120 370798.5
0.2160 386910.0
0.2200 385764.7
0.2240 403161.7
0.2280 417407.1
0.2320 431697.9
0.2360 451771.9
0.2400 463090.8
0.2440 475498.7
0.2480 490954.6
0.2520 498051.9
0.2560 509039.9
0.2600 515355.9
0.2640 529526.2
0.2680 544613.1
0.2720 551196.6
0.2760 561207.7
0.2800 571083.4
0.2840 577121.4
0.2880 585802.5
0.2920 590923.8
0.2960 599763.4
0.3000 600238.1
0.3040 605700.9
0.3080 608022.7
0.3120 613671.6
0.3160 620474.9
0.3200 624906.9
0.3240 629330.4
0.3280 638975.8
0.3320 643565.2
0.3360 639750.7
0.3400 646558.3
0.3440 648616.8
0.3480 647302.6
0.3520 649900.3
0.3560 653584.8
0.3600 659186.1
0.3640 659131.1
0.3680 659859.6
0.3720 660193.7
0.3760 659016.9
0.3800 654739.3
0.3840 657223.9
0.3880 663050.4
0.3920 665598.3
0.3960 660859.8
0.4000 667637.8
0.4040 666726.4
0.4080 668171.7
0.4120 674452.8
0.4160 669722.6
0.4200 669535.5
0.4240 674691.7
0.4280 672688.2
0.4320 675294.4
0.4360 671491.4
0.4400 665902.8
0.4440 664511.4
0.4480 659870.1
0.4520 653137.6
0.4560 650933.2
0.4600 650210.1
0.4640 652335.1
0.4680 644712.4
0.4720 648256.2
0.4760 646167.1
0.4800 636962.8
0.4840 631595.1
0.4880 632418.7
0.4920 629369.6
0.4960 626083.6
0.5000 627804.9
0.5040 625303.4
0.5080 625066.6
0.5120 624164.8
0.5160 621102.9
0.5200 614744.7
0.5240 617046.3
0.5280 608569.2
0.5320 608928.8
0.5360 601750.0
0.5400 606208.4
0.5440 601567.1
0.5480 600123.9
0.5520 602659.2
0.5560 601467.8
0.5600 596510.3
0.5640 601647.4
0.5680 598023.2
0.5720 594707.7
0.5760 597738.8
0.5800 595890.8
0.5840 600153.6
0.5880 594567.1
0.5920 590676.4
0.5960 593120.8
0.6000 590736.6
0.6040 585998.1
0.6080 587955.1
0.6120 582153.9
0.6160 583967.1
0.6200 581890.6
0.6240 577190.1
0.6280 577847.8
0.6320 572888.2
0.6360 565048.7
0.6400 563672.1
0.6440 558065.6
0.6480 556931.1
0.6520 551649.1
0.6560 546310.0
0.6600 541555.6
0.6640 536471.2
0.6680 532231.7
0.6720 522373.9
0.6760 517348.8
0.6800 513127.2
0.6840 502309.4
0.6880 487348.3
0.6920 483530.6
0.6960 478698.9
0.7000 467297.6
0.7040 460823.0
0.7080 439011.9
0.7120 438434.7
0.7160 427361.1
0.7200 414097.9
0.7240 402394.2
0.7280 393388.5
0.7320 378082.7
0.7360 363464.1
0.7400 346252.1
0.7440 332978.4
0.7480 321311.6
0.7520 316249.4
0.7560 304508.9
0.7600 289662.7
0.7640 274928.1
0.7680 261852.7
0.7720 249156.4
0.7760 237676.3
0.7800 224545.7
0.7840 211885.4
0.7880 202820.9
0.7920 192163.7
0.7960 181160.9
0.8000 171403.2
0.8040 164415.2
0.8080 156419.8
0.8120 149471.5
0.8160 140973.8
0.8200 135605.4
0.8240 127926.5
0.8280 123205.5
0.8320 117519.6
0.8360 112833.1
0.8400 106863.6
0.8440 103465.2
0.8480 99067.5
0.8520 94562.5
0.8560 90208.4
0.8600 88116.9
0.8640 82093.1
0.8680 80625.8
0.8720 76391.9
0.8760 74113.2
0.8800 72191.6
0.8840 69172.5
0.8880 66700.0
0.8920 63985.1
0.8960 62189.4
0.9000 60822.8
0.9040 59096.1
0.9080 56454.8
0.9120 54894.0
0.9160 53135.0
0.9200 51299.4
0.9240 49701.6
0.9280 47962.4
0.9320 45968.2
0.9360 44723.5
0.9400 43311.2
0.9440 42023.4
0.9480 41160.0
0.9520 40104.3
0.9560 39064.2
0.9600 38296.7
0.9640 37718.6
0.9680 36811.4
0.9720 35670.1
0.9760 34616.1
0.9800 33390.5
0.9840 32262.7
0.9880 31593.0
0.9920 30244.1
0.9960 29042.4
1.0000 28260.7
1.0040 27701.4
1.0080 27022.0
1.0120 26363.0
1.0160 26068.2
1.0200 25657.4
1.0240 25221.1
1.0280 24570.3
1.0320 24484.8
1.0360 24099.6
1.0400 22976.0
1.0440 22506.2
1.0480 21428.4
1.0520 20594.7
1.0560 19880.6
1.0600 19131.0
1.0640 18610.6
1.0680 17892.1
1.0720 17758.1
1.0760 17733.8
1.0800 17464.6
1.0840 16888.6
1.0880 16952.9
1.0920 17004.9
1.0960 16745.7
1.1000 16363.0
1.1040 16016.0
1.1080 15454.8
1.1120 14803.5
1.1160 14255.9
1.1200 13364.7
1.1240 12851.3
1.1280 12252.5
1.1320 11698.0
1.1360 11621.1
1.1400 11380.1
1.1440 11153.0
1.1480 10635.5
1.1520 11174.2
1.1560 11165.9
1.1600 11072.1
1.1640 11096.4
1.1680 10864.1
1.1720 10619.5
1.1760 10197.4
1.1800 9642.8
1.1840 9255.5
1.1880 8851.3
1.1920 8408.6
1.1960 7814.5
1.2000 7355.0
1.2040 7152.1
1.2080 6878.1
1.2120 6758.1
1.2160 6695.8
1.2200 6805.4
1.2240 6900.1
1.2280 7048.9
1.2320 7008.2
1.2360 7021.8
1.2400 6851.8
1.2440 6685.3
1.2480 6528.4
1.2520 6199.2
1.2560 5817.8
1.2600 5484.0
1.2640 4940.7
1.2680 4539.4
1.2720 4351.0
1.2760 4105.5
1.2800 3910.6
1.2840 3752.7
1.2880 3852.6
1.2920 3707.3
1.2960 3954.3
1.3000 3861.8
1.3040 3998.9
1.3080 4129.9
1.3120 4206.4
1.3160 4257.6
1.3200 4052.5
1.3240 3761.9
1.3280 3565.4
1.3320 3324.6
1.3360 3082.2
1.3400 2665.6
1.3440 2397.6
1.3480 2275.3
1.3520 2090.3
1.3560 1959.7
1.3600 1898.7
1.3640 1870.3
1.3680 1943.8
1.3720 2022.5
1.3760 2100.3
1.3800 2215.0
1.3840 2266.1
1.3880 2256.9
1.3920 2338.9
1.3960 2321.3
1.4000 2173.1
1.4040 2022.5
1.4080 1887.0
1.4120 1664.5
1.4160 1513.2
1.4200 1300.1
1.4240 1100.4
1.4280 976.0
1.4320 886.6
1.4360 866.6
1.4400 841.6
1.4440 826.5
1.4480 855.7
1.4520 957.6
1.4560 1067.0
1.4600 1102.9
1.4640 1181.4
1.4680 1185.6
1.4720 1238.2
1.4760 1148.8
1.4800 1125.5
1.4840 1065.3
1.4880 890.8
1.4920 821.5
1.4960 698.8
1.5000 577.0
1.5040 479.4
1.5080 413.5
1.5120 341.0
1.5160 291.8
1.5200 285.9
1.5240 310.9
1.5280 338.5
1.5320 396.8
1.5360 461.1
1.5400 522.8
1.5440 516.1
1.5480 619.6
1.5520 576.2
1.5560 606.2
1.5600 563.7
1.5640 507.8
1.5680 453.5
1.5720 382.6
1.5760 333.4
1.5800 266.7
1.5840 189.2
1.5880 130.9
1.5920 110.0
1.5960 91.7
1.6000 80.0
1.6040 119.2
1.6080 146.7
1.6120 150.0
1.6160 186.7
1.6200 207.5
1.6240 251.7
1.6280 268.4
1.6320 298.4
1.6360 247.6
1.6400 250.9
1.6440 258.4
1.6480 201.7
1.6520 195.0
1.6560 155.9
1.6600 149.2
1.6640 106.7
1.6680 85.8
1.6720 51.7
1.6760 54.2
1.6800 48.3
1.6840 52.5
1.6880 64.2
1.6920 78.3
1.6960 84.2
1.7000 95.0
1.7040 109.2
1.7080 131.7
1.7120 150.9
1.7160 150.0
1.7200 120.8
1.7240 132.5
1.7280 132.5
1.7320 115.0
1.7360 97.5
1.7400 103.3
1.7440 102.5
1.7480 90.8
1.7520 61.7
1.7560 67.5
1.7600 65.8
1.7640 60.8
1.7680 62.5
1.7720 60.0
1.7760 73.3
1.7800 89.2
1.7840 91.7
1.7880 86.7
1.7920 105.8
1.7960 80.8
1.8000 94.2
1.8040 84.2
1.8080 78.3
1.8120 70.0
1.8160 65.0
1.8200 70.0
1.8240 75.0
1.8280 79.2
1.8320 70.0
1.8360 78.3
1.8400 72.5
1.8440 81.7
1.8480 98.3
1.8520 89.2
1.8560 70.8
1.8600 84.2
1.8640 94.2
1.8680 80.0
1.8720 56.7
1.8760 87.5
1.8800 75.8
1.8840 60.8
1.8880 68.3
1.8920 55.0
1.8960 55.0
1.9000 68.3
1.9040 55.0
1.9080 54.2
1.9120 52.5
1.9160 67.5
1.9200 74.2
1.9240 58.3
1.9280 62.5
1.9320 77.5
1.9360 67.5
1.9400 72.5
1.9440 72.5
1.9480 63.3
1.9520 66.7
1.9560 81.7
1.9600 60.8
1.9640 60.8
1.9680 56.7
1.9720 43.3
1.9760 50.8
1.9800 50.0
1.9840 38.3
1.9880 45.8
1.9920 45.0
1.9960 58.3
2.0000 52.5
2.0040 48.3
2.0080 50.0
2.0120 50.0
2.0160 56.7
2.0200 63.3
2.0240 66.7
2.0280 72.5
2.0320 72.5
2.0360 70.0
2.0400 60.0
2.0440 62.5
2.0480 65.0
2.0520 61.7
2.0560 69.2
2.0600 58.3
2.0640 52.5
2.0680 45.8
2.0720 50.0
2.0760 44.2
2.0800 46.7
2.0840 30.0
2.0880 30.8
2.0920 45.8
2.0960 32.5
2.1000 40.8
2.1040 40.0
2.1080 55.0
2.1120 50.0
2.1160 55.8
2.1200 66.7
2.1240 62.5
2.1280 73.3
2.1320 65.0
2.1360 78.3
2.1400 80.0
2.1440 57.5
2.1480 60.8
2.1520 57.5
2.1560 47.5
2.1600 50.0
2.1640 42.5
2.1680 40.0
2.1720 25.8
2.1760 30.8
2.1800 33.3
2.1840 20.0
2.1880 35.0
2.1920 39.2
2.1960 41.7
2.2000 40.0
2.2040 58.3
2.2080 60.0
2.2120 68.3
2.2160 80.8
2.2200 80.8
2.2240 81.7
2.2280 64.2
2.2320 60.0
2.2360 77.5
2.2400 86.7
2.2440 63.3
2.2480 48.3
2.2520 44.2
2.2560 33.3
2.2600 25.0
2.2640 31.7
2.2680 26.7
2.2720 30.8
2.2760 36.7
2.2800 35.0
2.2840 35.8
2.2880 46.7
2.2920 66.7
2.2960 63.3
2.3000 83.3
2.3040 78.3
2.3080 105.8
2.3120 75.0
2.3160 103.3
2.3200 82.5
2.3240 80.0
2.3280 59.2
2.3320 65.0
2.3360 50.8
2.3400 35.0
2.3440 43.3
2.3480 38.3
2.3520 28.3
2.3560 29.2
2.3600 23.3
2.3640 36.7
2.3680 34.2
2.3720 44.2
2.3760 53.3
2.3800 53.3
2.3840 62.5
2.3880 70.8
2.3920 69.2
2.3960 71.7
2.4000 84.2
2.4040 80.8
2.4080 85.0
2.4120 88.3
2.4160 67.5
2.4200 58.3
2.4240 59.2
2.4280 48.3
2.4320 50.8
2.4360 34.2
2.4400 33.3
2.4440 28.3
2.4480 36.7
2.4520 29.2
2.4560 41.7
2.4600 39.2
2.4640 36.7
2.4680 53.3
2.4720 63.3
2.4760 62.5
2.4800 83.3
2.4840 76.7
2.4880 79.2
2.4920 75.8
2.4960 65.0
2.5000 68.3
2.5040 70.0
2.5080 70.8
2.5120 63.3
2.5160 54.2
2.5200 45.0
2.5240 38.3
2.5280 35.8
2.5320 30.0
2.5360 40.0
2.5400 30.8
2.5440 40.0
2.5480 47.5
2.5520 50.0
2.5560 43.3
2.5600 47.5
2.5640 56.7
2.5680 63.3
2.5720 61.7
2.5760 63.3
2.5800 72.5
2.5840 67.5
2.5880 65.8
2.5920 50.0
2.5960 45.0
2.6000 40.0
2.6040 41.7
2.6080 34.2
2.6120 35.0
2.6160 25.0
2.6200 33.3
2.6240 21.7
2.6280 33.3
2.6320 26.7
2.6360 34.2
2.6400 36.7
2.6440 45.8
2.6480 55.0
2.6520 33.3
2.6560 51.7
2.6600 51.7
2.6640 43.3
2.6680 55.0
2.6720 51.7
2.6760 52.5
2.6800 45.8
2.6840 43.3
2.6880 41.7
2.6920 26.7
2.6960 30.0
2.7000 35.0
2.7040 27.5
2.7080 28.3
2.7120 32.5
2.7160 20.8
2.7200 25.0
2.7240 19.2
2.7280 22.5
2.7320 35.0
2.7360 24.2
2.7400 30.8
2.7440 33.3
2.7480 37.5
2.7520 44.2
2.7560 43.3
2.7600 39.2
2.7640 35.8
2.7680 42.5
2.7720 29.2
2.7760 37.5
2.7800 31.7
2.7840 25.8
2.7880 30.0
2.7920 26.7
2.7960 25.8
2.8000 26.7
2.8040 19.2
2.8080 24.2
2.8120 29.2
2.8160 15.8
2.8200 25.0
2.8240 24.2
2.8280 26.7
2.8320 29.2
2.8360 23.3
2.8400 27.5
2.8440 29.2
2.8480 35.0
2.8520 35.0
2.8560 27.5
2.8600 25.0
2.8640 26.7
2.8680 21.7
2.8720 32.5
2.8760 20.0
2.8800 16.7
2.8840 18.3
2.8880 31.7
2.8920 19.2
2.8960 19.2
2.9000 16.7
2.9040 16.7
2.9080 17.5
2.9120 22.5
2.9160 18.3
2.9200 23.3
2.9240 25.0
2.9280 19.2
2.9320 29.2
2.9360 26.7
2.9400 25.8
2.9440 16.7
2.9480 26.7
2.9520 22.5
2.9560 15.8
2.9600 25.8
2.9640 17.5
2.9680 15.8
2.9720 14.2
2.9760 15.8
2.9800 21.7
2.9840 20.8
2.9880 16.7
2.9920 18.3
2.9960 21.7
3.0000 14.2
3.0040 17.5
3.0080 16.7
3.0120 10.0
3.0160 21.7
3.0200 14.2
3.0240 22.5
3.0280 19.2
3.0320 14.2
3.0360 21.7
3.0400 17.5
3.0440 15.0
3.0480 19.2
3.0520 17.5
3.0560 12.5
3.0600 19.2
3.0640 20.0
3.0680 11.7
3.0720 12.5
3.0760 14.2
3.0800 18.3
3.0840 22.5
3.0880 19.2
3.0920 18.3
3.0960 15.0
3.1000 11.7
3.1040 19.2
3.1080 21.7
3.1120 10.0
3.1160 12.5
3.1200 11.7
3.1240 10.8
3.1280 16.7
3.1320 20.0
3.1360 22.5
3.1400 18.3
3.1440 8.3
3.1480 20.0
3.1520 12.5
3.1560 10.0
3.1600 13.3
3.1640 11.7
3.1680 10.8
3.1720 19.2
3.1760 7.5
3.1800 12.5
3.1840 9.2
3.1880 9.2
3.1920 11.7
3.1960 14.2
3.2000 13.3
3.2040 14.2
3.2080 13.3
3.2120 17.5
3.2160 10.0
3.2200 17.5
3.2240 15.0
3.2280 15.8
3.2320 18.3
3.2360 5.0
3.2400 10.8
3.2440 12.5
3.2480 13.3
3.2520 15.0
3.2560 14.2
3.2600 8.3
3.2640 12.5
3.2680 11.7
3.2720 9.2
3.2760 16.7
3.2800 15.0
3.2840 5.8
3.2880 15.0
3.2920 10.0
3.2960 15.8
3.3000 16.7
3.3040 15.8
3.3080 18.3
3.3120 6.7
3.3160 16.7
3.3200 14.2
3.3240 10.8
3.3280 8.3
3.3320 13.3
3.3360 11.7
3.3400 9.2
3.3440 11.7
3.3480 8.3
3.3520 15.8
3.3560 19.2
3.3600 10.0
3.3640 9.2
3.3680 10.0
3.3720 21.7
3.3760 6.7
3.3800 10.8
3.3840 13.3
3.3880 8.3
3.3920 8.3
3.3960 7.5
3.4000 10.0
3.4040 9.2
3.4080 14.2
3.4120 18.3
3.4160 14.2
3.4200 12.5
3.4240 10.0
3.4280 11.7
3.4320 8.3
3.4360 3.3
3.4400 9.2
3.4440 6.7
3.4480 13.3
3.4520 10.8
3.4560 13.3
3.4600 5.0
3.4640 10.0
3.4680 13.3
3.4720 10.8
3.4760 11.7
3.4800 15.0
3.4840 8.3
3.4880 5.8
3.4920 14.2
3.4960 11.7
3.5000 4.2
3.5040 7.5
3.5080 16.7
3.5120 12.5
3.5160 15.8
3.5200 8.3
3.5240 12.5
3.5280 13.3
3.5320 10.8
3.5360 8.3
3.5400 9.2
3.5440 13.3
3.5480 10.8
3.5520 10.0
3.5560 5.0
3.5600 10.0
3.5640 12.5
3.5680 9.2
3.5720 11.7
3.5760 10.0
3.5800 5.8
3.5840 8.3
3.5880 11.7
3.5920 10.0
3.5960 10.0
3.6000 17.5
3.6040 11.7
3.6080 13.3
3.6120 12.5
3.6160 8.3
3.6200 11.7
3.6240 8.3
3.6280 3.3
3.6320 12.5
3.6360 8.3
3.6400 7.5
3.6440 10.8
3.6480 15.0
3.6520 5.0
3.6560 10.8
3.6600 10.0
3.6640 5.8
3.6680 8.3
3.6720 10.0
3.6760 6.7
3.6800 8.3
3.6840 9.2
3.6880 10.0
3.6920 9.2
3.6960 8.3
3.7000 10.8
3.7040 9.2
3.7080 6.7
3.7120 13.3
3.7160 6.7
3.7200 7.5
3.7240 15.8
3.7280 6.7
3.7320 6.7
3.7360 9.2
3.7400 5.0
3.7440 8.3
3.7480 7.5
3.7520 5.0
3.7560 3.3
3.7600 11.7
3.7640 6.7
3.7680 5.8
3.7720 8.3
3.7760 7.5
3.7800 5.8
3.7840 11.7
3.7880 10.0
3.7920 13.3
3.7960 13.3
3.8000 10.8
3.8040 11.7
3.8080 10.0
3.8120 8.3
3.8160 5.8
3.8200 9.2
3.8240 5.0
3.8280 8.3
3.8320 3.3
3.8360 6.7
3.8400 13.3
3.8440 12.5
3.8480 12.5
3.8520 2.5
3.8560 8.3
3.8600 6.7
3.8640 13.3
3.8680 5.8
3.8720 8.3
3.8760 5.0
3.8800 5.0
3.8840 4.2
3.8880 8.3
3.8920 13.3
3.8960 7.5
3.9000 5.0
3.9040 3.3
3.9080 5.8
3.9120 5.8
3.9160 9.2
3.9200 7.5
3.9240 4.2
3.9280 11.7
3.9320 8.3
3.9360 6.7
3.9400 7.5
3.9440 5.8
3.9480 10.8
3.9520 5.0
3.9560 5.0
3.9600 6.7
3.9640 5.0
3.9680 8.3
3.9720 7.5
3.9760 6.7
3.9800 1.7
3.9840 10.0
3.9880 6.7
3.9920 10.8
3.9960 7.5
4.0000 10.8
4.0040 7.5
4.0080 8.3
4.0120 2.5
4.0160 5.8
4.0200 6.7
4.0240 8.3
4.0280 9.2
4.0320 2.5
4.0360 5.8
4.0400 5.0
4.0440 3.3
4.0480 7.5
4.0520 10.8
4.0560 10.0
4.0600 5.8
4.0640 8.3
4.0680 10.8
4.0720 5.0
4.0760 6.7
4.0800 4.2
4.0840 9.2
4.0880 4.2
4.0920 7.5
4.0960 6.7
4.1000 5.0
4.1040 4.2
4.1080 9.2
4.1120 11.7
4.1160 6.7
4.1200 5.8
4.1240 5.0
4.1280 6.7
4.1320 4.2
4.1360 10.0
4.1400 5.8
4.1440 9.2
4.1480 5.8
4.1520 7.5
4.1560 9.2
4.1600 9.2
4.1640 6.7
4.1680 4.2
4.1720 5.8
4.1760 4.2
4.1800 5.8
4.1840 10.0
4.1880 9.2
4.1920 4.2
4.1960 7.5
4.2000 7.5
4.2040 3.3
4.2080 2.5
4.2120 7.5
4.2160 10.0
4.2200 5.8
4.2240 8.3
4.2280 9.2
4.2320 5.8
4.2360 4.2
4.2400 2.5
4.2440 3.3
4.2480 5.8
4.2520 8.3
4.2560 5.8
4.2600 5.8
4.2640 7.5
4.2680 3.3
4.2720 5.0
4.2760 9.2
4.2800 4.2
4.2840 7.5
4.2880 7.5
4.2920 6.7
4.2960 6.7
4.3000 7.5
4.3040 4.2
4.3080 8.3
4.3120 5.0
4.3160 7.5
4.3200 5.8
4.3240 5.0
4.3280 10.0
4.3320 5.8
4.3360 6.7
4.3400 7.5
4.3440 5.8
4.3480 8.3
4.3520 3.3
4.3560 5.0
4.3600 6.7
4.3640 6.7
4.3680 7.5
4.3720 7.5
4.3760 5.0
4.3800 5.8
4.3840 7.5
4.3880 9.2
4.3920 6.7
4.3960 7.5
4.4000 5.0
4.4040 5.0
4.4080 5.0
4.4120 4.2
4.4160 5.0
4.4200 7.5
4.4240 5.8
4.4280 3.3
4.4320 6.7
4.4360 11.7
4.4400 5.0
4.4440 4.2
4.4480 5.8
4.4520 3.3
4.4560 9.2
4.4600 3.3
4.4640 7.5
4.4680 3.3
4.4720 6.7
4.4760 5.0
4.4800 5.0
4.4840 3.3
4.4880 7.5
4.4920 4.2
4.4960 6.7
4.5000 6.7
4.5040 5.8
4.5080 8.3
4.5120 4.2
4.5160 8.3
4.5200 5.8
4.5240 5.8
4.5280 4.2
4.5320 10.0
4.5360 5.0
4.5400 7.5
4.5440 6.7
4.5480 7.5
4.5520 3.3
4.5560 4.2
4.5600 3.3
4.5640 4.2
4.5680 7.5
4.5720 4.2
4.5760 7.5
4.5800 9.2
4.5840 4.2
4.5880 6.7
4.5920 4.2
4.5960 8.3
4.6000 4.2
4.6040 7.5
4.6080 5.0
4.6120 4.2
4.6160 6.7
4.6200 5.0
4.6240 5.0
4.6280 5.8
4.6320 6.7
4.6360 3.3
4.6400 5.8
4.6440 8.3
4.6480 2.5
4.6520 4.2
4.6560 7.5
4.6600 9.2
4.6640 5.8
4.6680 6.7
4.6720 4.2
4.6760 4.2
4.6800 5.0
4.6840 9.2
4.6880 4.2
4.6920 5.0
4.6960 5.0
4.7000 6.7
4.7040 2.5
4.7080 7.5
4.7120 6.7
4.7160 10.0
4.7200 7.5
4.7240 8.3
4.7280 5.8
4.7320 3.3
4.7360 6.7
4.7400 5.0
4.7440 5.0
4.7480 5.0
4.7520 3.3
4.7560 7.5
4.7600 2.5
4.7640 8.3
4.7680 4.2
4.7720 2.5
4.7760 4.2
4.7800 3.3
4.7840 6.7
4.7880 4.2
4.7920 6.7
4.7960 5.0
4.8000 2.5
4.8040 7.5
4.8080 5.0
4.8120 5.0
4.8160 3.3
4.8200 2.5
4.8240 6.7
4.8280 8.3
4.8320 5.0
4.8360 2.5
4.8400 8.3
4.8440 7.5
4.8480 6.7
4.8520 8.3
4.8560 9.2
4.8600 4.2
4.8640 7.5
4.8680 6.7
4.8720 3.3
4.8760 5.8
4.8800 7.5
4.8840 5.8
4.8880 7.5
4.8920 3.3
4.8960 6.7
4.9000 5.8
4.9040 7.5
4.9080 5.0
4.9120 5.0
4.9160 6.7
4.9200 5.8
4.9240 3.3
4.9280 5.8
4.9320 3.3
4.9360 10.0
4.9400 5.0
4.9440 2.5
4.9480 5.8
4.9520 5.0
4.9560 7.5
4.9600 9.2
4.9640 6.7
4.9680 3.3
4.9720 7.5
4.9760 3.3
4.9800 6.7
4.9840 7.5
4.9880 5.8
4.9920 5.0
4.9960 3.3
5.0000 4.2
5.0040 5.8
5.0080 5.0
5.0120 7.5
5.0160 8.3
5.0200 4.2
5.0240 8.3
5.0280 8.3
5.0320 5.0
5.0360 6.7
5.0400 4.2
5.0440 8.3
5.0480 7.5
5.0520 6.7
5.0560 6.7
5.0600 2.5
5.0640 5.8
5.0680 2.5
5.0720 1.7
5.0760 6.7
5.0800 4.2
5.0840 5.0
5.0880 3.3
5.0920 5.8
5.0960 2.5
5.1000 4.2
5.1040 8.3
5.1080 5.8
5.1120 3.3
5.1160 11.7
5.1200 5.0
5.1240 4.2
5.1280 7.5
5.1320 5.0
5.1360 8.3
5.1400 5.0
5.1440 5.0
5.1480 5.0
5.1520 1.7
5.1560 8.3
5.1600 6.7
5.1640 5.8
5.1680 7.5
5.1720 6.7
5.1760 8.3
5.1800 5.8
5.1840 1.7
5.1880 4.2
5.1920 4.2
5.1960 4.2
5.2000 5.8
5.2040 5.0
5.2080 2.5
5.2120 5.8
5.2160 5.8
5.2200 5.0
5.2240 3.3
5.2280 4.2
5.2320 5.0
5.2360 3.3
5.2400 3.3
5.2440 4.2
5.2480 2.5
5.2520 4.2
5.2560 5.8
5.2600 5.8
5.2640 4.2
5.2680 5.0
5.2720 2.5
5.2760 5.0
5.2800 2.5
5.2840 5.8
5.2880 6.7
5.2920 4.2
5.2960 4.2
5.3000 8.3
5.3040 6.7
5.3080 3.3
5.3120 9.2
5.3160 9.2
5.3200 6.7
5.3240 4.2
5.3280 2.5
5.3320 5.0
5.3360 5.8
5.3400 1.7
5.3440 4.2
5.3480 7.5
5.3520 2.5
5.3560 2.5
5.3600 0.8
5.3640 3.3
5.3680 5.8
5.3720 8.3
5.3760 7.5
5.3800 7.5
5.3840 4.2
5.3880 5.0
5.3920 4.2
5.3960 5.8
5.4000 6.7
5.4040 5.0
5.4080 5.8
5.4120 4.2
5.4160 5.0
5.4200 3.3
5.4240 5.0
5.4280 8.3
5.4320 3.3
5.4360 5.0
5.4400 5.8
5.4440 8.3
5.4480 3.3
5.4520 6.7
5.4560 2.5
5.4600 1.7
5.4640 7.5
5.4680 4.2
5.4720 1.7
5.4760 6.7
5.4800 5.8
5.4840 5.8
5.4880 5.8
5.4920 4.2
5.4960 4.2
5.5000 7.5
5.5040 4.2
5.5080 2.5
5.5120 5.8
5.5160 3.3
5.5200 6.7
5.5240 5.8
5.5280 5.8
5.5320 2.5
5.5360 5.0
5.5400 2.5
5.5440 2.5
5.5480 6.7
5.5520 4.2
5.5560 10.8
5.5600 4.2
5.5640 3.3
5.5680 4.2
5.5720 3.3
5.5760 1.7
5.5800 3.3
5.5840 8.3
5.5880 5.8
5.5920 5.8
5.5960 4.2
5.6000 5.0
5.6040 4.2
5.6080 5.8
5.6120 5.8
5.6160 4.2
5.6200 4.2
5.6240 4.2
5.6280 1.7
5.6320 6.7
5.6360 6.7
5.6400 1.7
5.6440 5.8
5.6480 2.5
5.6520 5.8
5.6560 4.2
5.6600 5.8
5.6640 10.0
5.6680 5.0
5.6720 5.0
5.6760 5.0
5.6800 1.7
5.6840 9.2
5.6880 5.8
5.6920 5.8
5.6960 7.5
5.7000 1.7
5.7040 5.8
5.7080 3.3
5.7120 6.7
5.7160 8.3
5.7200 5.8
5.7240 5.8
5.7280 5.8
5.7320 3.3
5.7360 2.5
5.7400 2.5
5.7440 1.7
5.7480 1.7
5.7520 5.8
5.7560 2.5
5.7600 2.5
5.7640 5.8
5.7680 3.3
5.7720 6.7
5.7760 5.8
5.7800 5.8
5.7840 4.2
5.7880 3.3
5.7920 4.2
5.7960 2.5
5.8000 0.8
5.8040 6.7
5.8080 2.5
5.8120 5.0
5.8160 7.5
5.8200 5.8
5.8240 4.2
5.8280 2.5
5.8320 6.7
5.8360 4.2
5.8400 5.0
5.8440 2.5
5.8480 7.5
5.8520 5.8
5.8560 3.3
5.8600 4.2
5.8640 7.5
5.8680 5.0
5.8720 4.2
5.8760 4.2
5.8800 5.8
5.8840 5.0
5.8880 5.8
5.8920 5.8
5.8960 5.0
5.9000 0.0
5.9040 5.8
5.9080 5.0
5.9120 4.2
5.9160 9.2
5.9200 12.5
5.9240 7.5
5.9280 5.0
5.9320 6.7
5.9360 6.7
5.9400 5.8
5.9440 5.8
5.9480 0.8
5.9520 6.7
5.9560 5.0
5.9600 1.7
5.9640 4.2
5.9680 5.0
5.9720 3.3
5.9760 0.8
5.9800 4.2
5.9840 2.5
5.9880 5.8
5.9920 3.3
5.9960 5.0
6.0000 3.3
