;Bundle             = 1
;Partition          = 1
;Operator           = 
;Gonio              = ATX-G
;Memo               = 
;IncidentMonochro   = ½Ø¯ÄºØÒ°¼®Ý
;CounterMonochro    = ŽóŒõ½Ø¯Ä
;Attachment         = XY-STAGE
;Filter             = 
;SlitName0          = S1 10*1
;SlitName1          = S2 2*0.05
;SlitName2          = ATT 
;SlitName3          = RS 2*0.1
;SlitName4          = GS nothing
;Counter            = SC-70
;KAlpha1            = 1.5403
;KAlpha2            = 1.5434
;KBata              = 0
;Target             = Cu
;KV                 = 50
;mA                 = 300
;AxisName           = 2Theta/Omega
;MeasurementMethod = Continuation
;Start              = 0.2
;Finish             = 2
;Speed              = 2
;FixedTime          = 
;Width              = 0.004
;FullScale         = 1e+07
;Comment            = 0.35
;SampleName         = 
;Xunit              = deg.
;Yunit              = CPS
0.2000 932415.1
0.2040 941244.2
0.2080 958220.4
0.2120 975827.9
0.2160 1005884.4
0.2200 993423.6
0.2240 1039836.9
0.2280 1037316.4
0.2320 1070251.8
0.2360 1101730.4
0.2400 1085847.2
0.2440 1110303.5
0.2480 1152058.5
0.2520 1151127.1
0.2560 1177519.2
0.2600 1224181.9
0.2640 1216271.6
0.2680 1225000.2
0.2720 1261047.1
0.2760 1256290.6
0.2800 1263202.9
0.2840 1289308.5
0.2880 1317031.6
0.2920 1344428.1
0.2960 1364012.6
0.3000 1369033.5
0.3040 1401276.4
0.3080 1416011.2
0.3120 1431769.5
0.3160 1448731.0
0.3200 1465034.8
0.3240 1505898.5
0.3280 1527710.6
0.3320 1564220.6
0.3360 1541712.9
0.3400 1563749.1
0.3440 1606082.4
0.3480 1620555.0
0.3520 1644353.8
0.3560 1655377.6
0.3600 1683737.2
0.3640 1702219.0
0.3680 1736576.5
0.3720 1739519.9
0.3760 1765995.5
0.3800 1790885.2
0.3840 1810480.2
0.3880 1820842.4
0.3920 1873630.8
0.3960 1900858.1
0.4000 1880600.1
0.4040 1888110.9
0.4080 1934893.0
0.4120 1928441.8
0.4160 1943063.5
0.4200 2014113.8
0.4240 2017487.4
0.4280 2036564.4
0.4320 2051134.4
0.4360 2078604.9
0.4400 2080393.8
0.4440 2107148.5
0.4480 2130874.2
0.4520 2131883.8
0.4560 2178947.2
0.4600 2188244.8
0.4640 2208379.0
0.4680 2234037.2
0.4720 2239823.8
0.4760 2282890.8
0.4800 2304760.0
0.4840 2290776.8
0.4880 2330918.2
0.4920 2311695.5
0.4960 2352975.8
0.5000 2350096.8
0.5040 2402586.0
0.5080 2400668.2
0.5120 2418667.8
0.5160 2419366.8
0.5200 2425022.0
0.5240 2450299.8
0.5280 2461104.8
0.5320 2493535.8
0.5360 2500168.0
0.5400 2486781.0
0.5440 2537075.5
0.5480 2513654.2
0.5520 2553455.5
0.5560 2528651.2
0.5600 2627411.0
0.5640 2590385.2
0.5680 2674104.5
0.5720 2650223.2
0.5760 2635043.2
0.5800 2604312.2
0.5840 2615154.2
0.5880 2639279.8
0.5920 2618726.8
0.5960 2661442.8
0.6000 2646369.5
0.6040 2624666.5
0.6080 2624808.0
0.6120 2593185.8
0.6160 2658615.8
0.6200 2586426.8
0.6240 2682105.8
0.6280 2599061.0
0.6320 2620087.5
0.6360 2605583.0
0.6400 2635521.2
0.6440 2583236.0
0.6480 2607116.0
0.6520 2614607.8
0.6560 2579459.5
0.6600 2558384.2
0.6640 2561525.5
0.6680 2485960.8
0.6720 2544485.8
0.6760 2504704.8
0.6800 2496584.0
0.6840 2460358.2
0.6880 2430766.0
0.6920 2378781.0
0.6960 2364028.2
0.7000 2356326.0
0.7040 2257710.2
0.7080 2265352.0
0.7120 2224115.0
0.7160 2179393.5
0.7200 2104531.8
0.7240 2053790.1
0.7280 1987676.2
0.7320 1947395.0
0.7360 1879838.9
0.7400 1834829.8
0.7440 1749428.4
0.7480 1661679.9
0.7520 1624730.1
0.7560 1548725.5
0.7600 1463110.6
0.7640 1405496.9
0.7680 1327020.5
0.7720 1281714.2
0.7760 1221853.9
0.7800 1143400.8
0.7840 1085710.9
0.7880 1027544.2
0.7920 979648.8
0.7960 922042.4
0.8000 875868.2
0.8040 817018.6
0.8080 794812.1
0.8120 744759.8
0.8160 709952.0
0.8200 662338.8
0.8240 628862.1
0.8280 609704.8
0.8320 559943.2
0.8360 546051.0
0.8400 509216.4
0.8440 484649.2
0.8480 471132.2
0.8520 451137.5
0.8560 431086.8
0.8600 409961.9
0.8640 393287.0
0.8680 370816.2
0.8720 347010.2
0.8760 341679.5
0.8800 326222.5
0.8840 329394.0
0.8880 313271.2
0.8920 300862.7
0.8960 285138.6
0.9000 274876.4
0.9040 265676.6
0.9080 254901.0
0.9120 244108.7
0.9160 236612.8
0.9200 223590.7
0.9240 211740.5
0.9280 201800.5
0.9320 193651.3
0.9360 188770.7
0.9400 181487.0
0.9440 173378.5
0.9480 171301.7
0.9520 165633.5
0.9560 158613.2
0.9600 155118.7
0.9640 147070.3
0.9680 142459.2
0.9720 138235.6
0.9760 129397.0
0.9800 125942.6
0.9840 117068.7
0.9880 114969.7
0.9920 109909.6
0.9960 105948.8
1.0000 102761.9
1.0040 99694.9
1.0080 96764.4
1.0120 96923.7
1.0160 95724.5
1.0200 91094.8
1.0240 88085.9
1.0280 85345.4
1.0320 82460.9
1.0360 76922.7
1.0400 73680.4
1.0440 69000.3
1.0480 64240.2
1.0520 63146.1
1.0560 59385.1
1.0600 57657.7
1.0640 56963.1
1.0680 55513.5
1.0720 57414.8
1.0760 54190.5
1.0800 54181.6
1.0840 51806.9
1.0880 50680.1
1.0920 48861.8
1.0960 46367.0
1.1000 44089.3
1.1040 41051.7
1.1080 37757.1
1.1120 37124.5
1.1160 35498.0
1.1200 32720.0
1.1240 31919.4
1.1280 29976.3
1.1320 29843.0
1.1360 29831.5
1.1400 30028.1
1.1440 29098.0
1.1480 28555.6
1.1520 27582.3
1.1560 27294.2
1.1600 26234.6
1.1640 25477.0
1.1680 22441.8
1.1720 22117.9
1.1760 19584.7
1.1800 17621.5
1.1840 16579.7
1.1880 15500.9
1.1920 14925.9
1.1960 14822.1
1.2000 14137.1
1.2040 14091.9
1.2080 14695.5
1.2120 14366.5
1.2160 14728.3
1.2200 14940.5
1.2240 14701.5
1.2280 14435.7
1.2320 13723.5
1.2360 12576.6
1.2400 10989.1
1.2440 11354.5
1.2480 9695.2
1.2520 8718.4
1.2560 8108.1
1.2600 7303.9
1.2640 7228.2
1.2680 6552.4
1.2720 6881.1
1.2760 6864.4
1.2800 6856.0
1.2840 7270.6
1.2880 7490.2
1.2920 8099.8
1.2960 8311.5
1.3000 8108.7
1.3040 7388.6
1.3080 7304.2
1.3120 6830.7
1.3160 5994.9
1.3200 4874.2
1.3240 4924.4
1.3280 4436.5
1.3320 3353.2
1.3360 3672.2
1.3400 2958.9
1.3440 2724.2
1.3480 3034.4
1.3520 3009.2
1.3560 3160.2
1.3600 3579.7
1.3640 3638.4
1.3680 3865.0
1.3720 4091.9
1.3760 4293.8
1.3800 4024.8
1.3840 3781.3
1.3880 3185.5
1.3920 3126.7
1.3960 2674.0
1.4000 2338.9
1.4040 1736.4
1.4080 1443.8
1.4120 1485.6
1.4160 1201.5
1.4200 1026.1
1.4240 1092.9
1.4280 1193.1
1.4320 1276.7
1.4360 1418.7
1.4400 1468.8
1.4440 1702.9
1.4480 1895.3
1.4520 1878.6
1.4560 1828.4
1.4600 2004.1
1.4640 1728.1
1.4680 1719.7
1.4720 1502.3
1.4760 1101.3
1.4800 1234.9
1.4840 708.8
1.4880 558.7
1.4920 583.7
1.4960 358.5
1.5000 291.8
1.5040 383.5
1.5080 458.6
1.5120 483.6
1.5160 583.7
1.5200 575.3
1.5240 817.3
1.5280 800.7
1.5320 850.7
1.5360 959.3
1.5400 825.7
1.5440 850.7
1.5480 825.7
1.5520 725.5
1.5560 558.7
1.5600 466.9
1.5640 375.1
1.5680 266.7
1.5720 141.7
1.5760 75.0
1.5800 91.7
1.5840 116.7
1.5880 108.3
1.5920 141.7
1.5960 183.4
1.6000 258.4
1.6040 375.1
1.6080 291.8
1.6120 391.8
1.6160 433.5
1.6200 491.9
1.6240 441.9
1.6280 416.8
1.6320 291.8
1.6360 283.4
1.6400 166.7
1.6440 125.0
1.6480 141.7
1.6520 116.7
1.6560 66.7
1.6600 25.0
1.6640 50.0
1.6680 33.3
1.6720 75.0
1.6760 83.3
1.6800 175.0
1.6840 191.7
1.6880 225.1
1.6920 233.4
1.6960 250.1
1.7000 175.0
1.7040 200.0
1.7080 233.4
1.7120 175.0
1.7160 183.4
1.7200 91.7
1.7240 66.7
1.7280 75.0
1.7320 50.0
1.7360 33.3
1.7400 25.0
1.7440 25.0
1.7480 33.3
1.7520 58.3
1.7560 75.0
1.7600 125.0
1.7640 66.7
1.7680 91.7
1.7720 116.7
1.7760 150.0
1.7800 125.0
1.7840 133.4
1.7880 150.0
1.7920 116.7
1.7960 91.7
1.8000 75.0
1.8040 83.3
1.8080 75.0
1.8120 75.0
1.8160 100.0
1.8200 33.3
1.8240 41.7
1.8280 33.3
1.8320 66.7
1.8360 108.3
1.8400 75.0
1.8440 116.7
1.8480 75.0
1.8520 166.7
1.8560 50.0
1.8600 100.0
1.8640 75.0
1.8680 83.3
1.8720 75.0
1.8760 100.0
1.8800 33.3
1.8840 58.3
1.8880 66.7
1.8920 41.7
1.8960 25.0
1.9000 33.3
1.9040 33.3
1.9080 50.0
1.9120 91.7
1.9160 100.0
1.9200 116.7
1.9240 91.7
1.9280 150.0
1.9320 108.3
1.9360 125.0
1.9400 100.0
1.9440 108.3
1.9480 66.7
1.9520 125.0
1.9560 66.7
1.9600 33.3
1.9640 50.0
1.9680 33.3
1.9720 25.0
1.9760 50.0
1.9800 33.3
1.9840 75.0
1.9880 100.0
1.9920 133.4
1.9960 91.7
2.0000 91.7
;Bundle             = 1
;Partition          = 2
;Operator           = 
;Gonio              = ATX-G
;Memo               = 
;IncidentMonochro   = ½Ø¯ÄºØÒ°¼®Ý
;CounterMonochro    = ŽóŒõ½Ø¯Ä
;Attachment         = XY-STAGE
;Filter             = 
;SlitName0          = S1 10*1
;SlitName1          = S2 2*0.05
;SlitName2          = ATT 
;SlitName3          = RS 2*0.1
;SlitName4          = GS nothing
;Counter            = SC-70
;KAlpha1            = 1.5403
;KAlpha2            = 1.5434
;KBata              = 0
;Target             = Cu
;KV                 = 50
;mA                 = 300
;AxisName           = 2Theta/Omega
;MeasurementMethod = Continuation
;Start              = 1.9
;Finish             = 6
;Speed              = 1
;FixedTime          = 
;Width              = 0.004
;FullScale         = 1000
;Comment            = 0.35
;SampleName         = 
;Xunit              = deg.
;Yunit              = CPS
1.9000 66.7
1.9040 75.0
1.9080 108.3
1.9120 75.0
1.9160 120.8
1.9200 150.0
1.9240 170.9
1.9280 125.0
1.9320 150.0
1.9360 195.9
1.9400 154.2
1.9440 125.0
1.9480 95.8
1.9520 75.0
1.9560 70.8
1.9600 50.0
1.9640 58.3
1.9680 50.0
1.9720 41.7
1.9760 20.8
1.9800 58.3
1.9840 62.5
1.9880 79.2
1.9920 87.5
1.9960 141.7
2.0000 83.3
2.0040 175.0
2.0080 150.0
2.0120 120.8
2.0160 225.1
2.0200 212.5
2.0240 195.9
2.0280 162.5
2.0320 133.4
2.0360 133.4
2.0400 104.2
2.0440 87.5
2.0480 66.7
2.0520 20.8
2.0560 62.5
2.0600 37.5
2.0640 45.8
2.0680 29.2
2.0720 95.8
2.0760 104.2
2.0800 145.9
2.0840 162.5
2.0880 208.4
2.0920 187.5
2.0960 175.0
2.1000 216.7
2.1040 220.9
2.1080 183.4
2.1120 191.7
2.1160 175.0
2.1200 133.4
2.1240 145.9
2.1280 104.2
2.1320 91.7
2.1360 41.7
2.1400 45.8
2.1440 37.5
2.1480 16.7
2.1520 41.7
2.1560 50.0
2.1600 58.3
2.1640 91.7
2.1680 129.2
2.1720 175.0
2.1760 170.9
2.1800 220.9
2.1840 204.2
2.1880 287.6
2.1920 233.4
2.1960 191.7
2.2000 191.7
2.2040 212.5
2.2080 162.5
2.2120 129.2
2.2160 83.3
2.2200 66.7
2.2240 66.7
2.2280 41.7
2.2320 25.0
2.2360 50.0
2.2400 37.5
2.2440 50.0
2.2480 75.0
2.2520 112.5
2.2560 150.0
2.2600 154.2
2.2640 233.4
2.2680 254.2
2.2720 204.2
2.2760 333.4
2.2800 200.0
2.2840 304.3
2.2880 312.6
2.2920 175.0
2.2960 200.0
2.3000 166.7
2.3040 129.2
2.3080 120.8
2.3120 45.8
2.3160 58.3
2.3200 50.0
2.3240 41.7
2.3280 54.2
2.3320 79.2
2.3360 91.7
2.3400 145.9
2.3440 162.5
2.3480 212.5
2.3520 266.7
2.3560 275.1
2.3600 366.8
2.3640 308.4
2.3680 291.8
2.3720 304.3
2.3760 283.4
2.3800 270.9
2.3840 254.2
2.3880 254.2
2.3920 158.4
2.3960 162.5
2.4000 75.0
2.4040 29.2
2.4080 95.8
2.4120 45.8
2.4160 54.2
2.4200 66.7
2.4240 66.7
2.4280 116.7
2.4320 129.2
2.4360 187.5
2.4400 212.5
2.4440 283.4
2.4480 362.6
2.4520 333.4
2.4560 371.0
2.4600 320.9
2.4640 333.4
2.4680 304.3
2.4720 275.1
2.4760 220.9
2.4800 208.4
2.4840 166.7
2.4880 112.5
2.4920 70.8
2.4960 108.3
2.5000 62.5
2.5040 66.7
2.5080 45.8
2.5120 58.3
2.5160 120.8
2.5200 108.3
2.5240 133.4
2.5280 200.0
2.5320 237.6
2.5360 320.9
2.5400 391.8
2.5440 458.5
2.5480 325.1
2.5520 287.6
2.5560 308.4
2.5600 283.4
2.5640 250.1
2.5680 187.5
2.5720 162.5
2.5760 112.5
2.5800 129.2
2.5840 87.5
2.5880 41.7
2.5920 58.3
2.5960 45.8
2.6000 62.5
2.6040 104.2
2.6080 145.9
2.6120 145.9
2.6160 191.7
2.6200 245.9
2.6240 295.9
2.6280 275.1
2.6320 333.4
2.6360 383.5
2.6400 358.5
2.6440 325.1
2.6480 346.0
2.6520 262.6
2.6560 229.2
2.6600 216.7
2.6640 183.4
2.6680 133.4
2.6720 112.5
2.6760 100.0
2.6800 62.5
2.6840 37.5
2.6880 66.7
2.6920 87.5
2.6960 91.7
2.7000 129.2
2.7040 137.5
2.7080 245.9
2.7120 262.6
2.7160 270.9
2.7200 279.2
2.7240 308.4
2.7280 391.8
2.7320 287.6
2.7360 270.9
2.7400 329.3
2.7440 212.5
2.7480 258.4
2.7520 208.4
2.7560 137.5
2.7600 125.0
2.7640 112.5
2.7680 79.2
2.7720 83.3
2.7760 62.5
2.7800 79.2
2.7840 100.0
2.7880 154.2
2.7920 166.7
2.7960 179.2
2.8000 208.4
2.8040 216.7
2.8080 270.9
2.8120 341.8
2.8160 329.3
2.8200 425.2
2.8240 308.4
2.8280 270.9
2.8320 308.4
2.8360 220.9
2.8400 287.6
2.8440 175.0
2.8480 158.4
2.8520 95.8
2.8560 66.7
2.8600 54.2
2.8640 58.3
2.8680 62.5
2.8720 91.7
2.8760 108.3
2.8800 108.3
2.8840 170.9
2.8880 145.9
2.8920 216.7
2.8960 320.9
2.9000 254.2
2.9040 275.1
2.9080 237.6
2.9120 350.1
2.9160 295.9
2.9200 275.1
2.9240 204.2
2.9280 187.5
2.9320 187.5
2.9360 158.4
2.9400 125.0
2.9440 95.8
2.9480 91.7
2.9520 70.8
2.9560 66.7
2.9600 104.2
2.9640 83.3
2.9680 104.2
2.9720 120.8
2.9760 137.5
2.9800 133.4
2.9840 162.5
2.9880 225.1
2.9920 237.6
2.9960 220.9
3.0000 291.8
3.0040 250.1
3.0080 183.4
3.0120 195.9
3.0160 220.9
3.0200 187.5
3.0240 170.9
3.0280 137.5
3.0320 141.7
3.0360 125.0
3.0400 91.7
3.0440 91.7
3.0480 75.0
3.0520 70.8
3.0560 62.5
3.0600 83.3
3.0640 129.2
3.0680 108.3
3.0720 116.7
3.0760 183.4
3.0800 233.4
3.0840 241.7
3.0880 208.4
3.0920 241.7
3.0960 229.2
3.1000 229.2
3.1040 183.4
3.1080 120.8
3.1120 162.5
3.1160 170.9
3.1200 129.2
3.1240 95.8
3.1280 91.7
3.1320 58.3
3.1360 54.2
3.1400 83.3
3.1440 66.7
3.1480 79.2
3.1520 95.8
3.1560 95.8
3.1600 158.4
3.1640 187.5
3.1680 145.9
3.1720 191.7
3.1760 237.6
3.1800 191.7
3.1840 187.5
3.1880 170.9
3.1920 154.2
3.1960 187.5
3.2000 179.2
3.2040 154.2
3.2080 120.8
3.2120 104.2
3.2160 104.2
3.2200 95.8
3.2240 91.7
3.2280 70.8
3.2320 95.8
3.2360 62.5
3.2400 45.8
3.2440 75.0
3.2480 91.7
3.2520 91.7
3.2560 116.7
3.2600 150.0
3.2640 225.1
3.2680 175.0
3.2720 208.4
3.2760 141.7
3.2800 212.5
3.2840 187.5
3.2880 179.2
3.2920 170.9
3.2960 137.5
3.3000 133.4
3.3040 137.5
3.3080 108.3
3.3120 87.5
3.3160 79.2
3.3200 58.3
3.3240 58.3
3.3280 79.2
3.3320 116.7
3.3360 83.3
3.3400 95.8
3.3440 129.2
3.3480 129.2
3.3520 200.0
3.3560 162.5
3.3600 179.2
3.3640 154.2
3.3680 191.7
3.3720 141.7
3.3760 133.4
3.3800 162.5
3.3840 137.5
3.3880 141.7
3.3920 120.8
3.3960 75.0
3.4000 120.8
3.4040 70.8
3.4080 70.8
3.4120 54.2
3.4160 70.8
3.4200 83.3
3.4240 100.0
3.4280 66.7
3.4320 104.2
3.4360 112.5
3.4400 104.2
3.4440 120.8
3.4480 162.5
3.4520 166.7
3.4560 158.4
3.4600 158.4
3.4640 179.2
3.4680 170.9
3.4720 120.8
3.4760 133.4
3.4800 112.5
3.4840 129.2
3.4880 91.7
3.4920 62.5
3.4960 62.5
3.5000 79.2
3.5040 54.2
3.5080 95.8
3.5120 54.2
3.5160 62.5
3.5200 66.7
3.5240 87.5
3.5280 104.2
3.5320 112.5
3.5360 120.8
3.5400 166.7
3.5440 154.2
3.5480 120.8
3.5520 104.2
3.5560 116.7
3.5600 108.3
3.5640 158.4
3.5680 120.8
3.5720 133.4
3.5760 104.2
3.5800 75.0
3.5840 75.0
3.5880 62.5
3.5920 41.7
3.5960 37.5
3.6000 54.2
3.6040 70.8
3.6080 41.7
3.6120 75.0
3.6160 75.0
3.6200 95.8
3.6240 100.0
3.6280 104.2
3.6320 95.8
3.6360 104.2
3.6400 154.2
3.6440 112.5
3.6480 112.5
3.6520 120.8
3.6560 108.3
3.6600 112.5
3.6640 87.5
3.6680 66.7
3.6720 62.5
3.6760 50.0
3.6800 83.3
3.6840 66.7
3.6880 58.3
3.6920 62.5
3.6960 25.0
3.7000 37.5
3.7040 62.5
3.7080 70.8
3.7120 95.8
3.7160 75.0
3.7200 87.5
3.7240 100.0
3.7280 87.5
3.7320 141.7
3.7360 95.8
3.7400 129.2
3.7440 104.2
3.7480 87.5
3.7520 87.5
3.7560 45.8
3.7600 58.3
3.7640 62.5
3.7680 29.2
3.7720 41.7
3.7760 12.5
3.7800 45.8
3.7840 41.7
3.7880 25.0
3.7920 70.8
3.7960 37.5
3.8000 33.3
3.8040 50.0
3.8080 75.0
3.8120 87.5
3.8160 108.3
3.8200 137.5
3.8240 75.0
3.8280 91.7
3.8320 75.0
3.8360 133.4
3.8400 104.2
3.8440 58.3
3.8480 79.2
3.8520 45.8
3.8560 41.7
3.8600 29.2
3.8640 54.2
3.8680 41.7
3.8720 25.0
3.8760 29.2
3.8800 37.5
3.8840 37.5
3.8880 37.5
3.8920 58.3
3.8960 45.8
3.9000 87.5
3.9040 83.3
3.9080 75.0
3.9120 66.7
3.9160 37.5
3.9200 66.7
3.9240 70.8
3.9280 108.3
3.9320 87.5
3.9360 45.8
3.9400 62.5
3.9440 45.8
3.9480 33.3
3.9520 41.7
3.9560 33.3
3.9600 45.8
3.9640 54.2
3.9680 29.2
3.9720 50.0
3.9760 37.5
3.9800 54.2
3.9840 37.5
3.9880 41.7
3.9920 50.0
3.9960 25.0
4.0000 83.3
4.0040 79.2
4.0080 50.0
4.0120 108.3
4.0160 75.0
4.0200 45.8
4.0240 83.3
4.0280 50.0
4.0320 33.3
4.0360 37.5
4.0400 41.7
4.0440 41.7
4.0480 12.5
4.0520 20.8
4.0560 33.3
4.0600 25.0
4.0640 33.3
4.0680 37.5
4.0720 16.7
4.0760 41.7
4.0800 62.5
4.0840 37.5
4.0880 50.0
4.0920 50.0
4.0960 41.7
4.1000 87.5
4.1040 50.0
4.1080 70.8
4.1120 58.3
4.1160 41.7
4.1200 25.0
4.1240 37.5
4.1280 54.2
4.1320 25.0
4.1360 20.8
4.1400 29.2
4.1440 41.7
4.1480 37.5
4.1520 12.5
4.1560 20.8
4.1600 41.7
4.1640 37.5
4.1680 41.7
4.1720 25.0
4.1760 41.7
4.1800 58.3
4.1840 62.5
4.1880 45.8
4.1920 58.3
4.1960 79.2
4.2000 62.5
4.2040 41.7
4.2080 66.7
4.2120 45.8
4.2160 41.7
4.2200 37.5
4.2240 37.5
4.2280 25.0
4.2320 25.0
4.2360 20.8
4.2400 20.8
4.2440 25.0
4.2480 20.8
4.2520 29.2
4.2560 37.5
4.2600 25.0
4.2640 45.8
4.2680 16.7
4.2720 54.2
4.2760 50.0
4.2800 50.0
4.2840 54.2
4.2880 58.3
4.2920 50.0
4.2960 41.7
4.3000 50.0
4.3040 50.0
4.3080 41.7
4.3120 37.5
4.3160 33.3
4.3200 12.5
4.3240 16.7
4.3280 16.7
4.3320 20.8
4.3360 12.5
4.3400 25.0
4.3440 16.7
4.3480 20.8
4.3520 37.5
4.3560 16.7
4.3600 37.5
4.3640 37.5
4.3680 37.5
4.3720 29.2
4.3760 41.7
4.3800 41.7
4.3840 33.3
4.3880 66.7
4.3920 8.3
4.3960 20.8
4.4000 37.5
4.4040 20.8
4.4080 20.8
4.4120 20.8
4.4160 8.3
4.4200 25.0
4.4240 16.7
4.4280 20.8
4.4320 16.7
4.4360 29.2
4.4400 41.7
4.4440 25.0
4.4480 16.7
4.4520 41.7
4.4560 12.5
4.4600 16.7
4.4640 29.2
4.4680 33.3
4.4720 33.3
4.4760 12.5
4.4800 50.0
4.4840 33.3
4.4880 33.3
4.4920 25.0
4.4960 37.5
4.5000 16.7
4.5040 16.7
4.5080 12.5
4.5120 4.2
4.5160 16.7
4.5200 16.7
4.5240 16.7
4.5280 20.8
4.5320 29.2
4.5360 45.8
4.5400 20.8
4.5440 25.0
4.5480 16.7
4.5520 16.7
4.5560 20.8
4.5600 66.7
4.5640 33.3
4.5680 29.2
4.5720 33.3
4.5760 20.8
4.5800 16.7
4.5840 45.8
4.5880 20.8
4.5920 20.8
4.5960 16.7
4.6000 8.3
4.6040 0.0
4.6080 25.0
4.6120 16.7
4.6160 8.3
4.6200 25.0
4.6240 20.8
4.6280 20.8
4.6320 12.5
4.6360 20.8
4.6400 33.3
4.6440 12.5
4.6480 16.7
4.6520 45.8
4.6560 25.0
4.6600 20.8
4.6640 29.2
4.6680 20.8
4.6720 37.5
4.6760 25.0
4.6800 8.3
4.6840 12.5
4.6880 8.3
4.6920 33.3
4.6960 16.7
4.7000 20.8
4.7040 8.3
4.7080 12.5
4.7120 8.3
4.7160 16.7
4.7200 25.0
4.7240 12.5
4.7280 8.3
4.7320 16.7
4.7360 33.3
4.7400 4.2
4.7440 12.5
4.7480 12.5
4.7520 16.7
4.7560 12.5
4.7600 16.7
4.7640 20.8
4.7680 20.8
4.7720 20.8
4.7760 4.2
4.7800 4.2
4.7840 20.8
4.7880 12.5
4.7920 12.5
4.7960 4.2
4.8000 8.3
4.8040 16.7
4.8080 12.5
4.8120 0.0
4.8160 8.3
4.8200 25.0
4.8240 12.5
4.8280 29.2
4.8320 8.3
4.8360 16.7
4.8400 29.2
4.8440 20.8
4.8480 12.5
4.8520 4.2
4.8560 8.3
4.8600 16.7
4.8640 16.7
4.8680 12.5
4.8720 4.2
4.8760 4.2
4.8800 8.3
4.8840 12.5
4.8880 20.8
4.8920 8.3
4.8960 4.2
4.9000 4.2
4.9040 12.5
4.9080 8.3
4.9120 4.2
4.9160 0.0
4.9200 12.5
4.9240 4.2
4.9280 12.5
4.9320 8.3
4.9360 4.2
4.9400 12.5
4.9440 8.3
4.9480 12.5
4.9520 8.3
4.9560 4.2
4.9600 4.2
4.9640 4.2
4.9680 4.2
4.9720 8.3
4.9760 8.3
4.9800 8.3
4.9840 0.0
4.9880 0.0
4.9920 8.3
4.9960 20.8
5.0000 4.2
5.0040 4.2
5.0080 4.2
5.0120 0.0
5.0160 8.3
5.0200 0.0
5.0240 8.3
5.0280 4.2
5.0320 8.3
5.0360 8.3
5.0400 4.2
5.0440 4.2
5.0480 4.2
5.0520 4.2
5.0560 4.2
5.0600 4.2
5.0640 0.0
5.0680 4.2
5.0720 4.2
5.0760 4.2
5.0800 4.2
5.0840 8.3
5.0880 0.0
5.0920 8.3
5.0960 12.5
5.1000 0.0
5.1040 12.5
5.1080 16.7
5.1120 8.3
5.1160 4.2
5.1200 12.5
5.1240 0.0
5.1280 8.3
5.1320 8.3
5.1360 0.0
5.1400 0.0
5.1440 0.0
5.1480 16.7
5.1520 4.2
5.1560 8.3
5.1600 0.0
5.1640 0.0
5.1680 12.5
5.1720 4.2
5.1760 8.3
5.1800 4.2
5.1840 12.5
5.1880 4.2
5.1920 12.5
5.1960 4.2
5.2000 20.8
5.2040 12.5
5.2080 4.2
5.2120 8.3
5.2160 4.2
5.2200 4.2
5.2240 8.3
5.2280 0.0
5.2320 4.2
5.2360 0.0
5.2400 4.2
5.2440 4.2
5.2480 4.2
5.2520 8.3
5.2560 4.2
5.2600 4.2
5.2640 4.2
5.2680 0.0
5.2720 4.2
5.2760 4.2
5.2800 12.5
5.2840 8.3
5.2880 4.2
5.2920 0.0
5.2960 4.2
5.3000 0.0
5.3040 4.2
5.3080 12.5
5.3120 0.0
5.3160 8.3
5.3200 0.0
5.3240 4.2
5.3280 8.3
5.3320 0.0
5.3360 0.0
5.3400 0.0
5.3440 0.0
5.3480 0.0
5.3520 4.2
5.3560 8.3
5.3600 0.0
5.3640 0.0
5.3680 0.0
5.3720 12.5
5.3760 4.2
5.3800 0.0
5.3840 4.2
5.3880 4.2
5.3920 0.0
5.3960 4.2
5.4000 8.3
5.4040 0.0
5.4080 0.0
5.4120 0.0
5.4160 0.0
5.4200 0.0
5.4240 4.2
5.4280 4.2
5.4320 8.3
5.4360 4.2
5.4400 4.2
5.4440 0.0
5.4480 4.2
5.4520 8.3
5.4560 4.2
5.4600 4.2
5.4640 0.0
5.4680 8.3
5.4720 4.2
5.4760 16.7
5.4800 4.2
5.4840 0.0
5.4880 8.3
5.4920 4.2
5.4960 8.3
5.5000 4.2
5.5040 8.3
5.5080 0.0
5.5120 0.0
5.5160 0.0
5.5200 4.2
5.5240 8.3
5.5280 0.0
5.5320 0.0
5.5360 4.2
5.5400 4.2
5.5440 0.0
5.5480 4.2
5.5520 0.0
5.5560 4.2
5.5600 8.3
5.5640 0.0
5.5680 4.2
5.5720 0.0
5.5760 4.2
5.5800 4.2
5.5840 0.0
5.5880 0.0
5.5920 0.0
5.5960 12.5
5.6000 0.0
5.6040 0.0
5.6080 0.0
5.6120 0.0
5.6160 0.0
5.6200 4.2
5.6240 4.2
5.6280 0.0
5.6320 4.2
5.6360 4.2
5.6400 0.0
5.6440 4.2
5.6480 4.2
5.6520 0.0
5.6560 0.0
5.6600 8.3
5.6640 4.2
5.6680 12.5
5.6720 4.2
5.6760 4.2
5.6800 4.2
5.6840 0.0
5.6880 4.2
5.6920 4.2
5.6960 4.2
5.7000 8.3
5.7040 4.2
5.7080 0.0
5.7120 4.2
5.7160 4.2
5.7200 0.0
5.7240 0.0
5.7280 0.0
5.7320 4.2
5.7360 8.3
5.7400 4.2
5.7440 4.2
5.7480 8.3
5.7520 0.0
5.7560 12.5
5.7600 0.0
5.7640 0.0
5.7680 0.0
5.7720 0.0
5.7760 8.3
5.7800 4.2
5.7840 0.0
5.7880 0.0
5.7920 4.2
5.7960 4.2
5.8000 4.2
5.8040 0.0
5.8080 0.0
5.8120 8.3
5.8160 8.3
5.8200 0.0
5.8240 12.5
5.8280 0.0
5.8320 4.2
5.8360 4.2
5.8400 4.2
5.8440 4.2
5.8480 4.2
5.8520 0.0
5.8560 0.0
5.8600 0.0
5.8640 0.0
5.8680 4.2
5.8720 8.3
5.8760 4.2
5.8800 0.0
5.8840 0.0
5.8880 0.0
5.8920 0.0
5.8960 8.3
5.9000 4.2
5.9040 0.0
5.9080 0.0
5.9120 0.0
5.9160 0.0
5.9200 0.0
5.9240 12.5
5.9280 0.0
5.9320 0.0
5.9360 0.0
5.9400 4.2
5.9440 8.3
5.9480 12.5
5.9520 8.3
5.9560 4.2
5.9600 0.0
5.9640 4.2
5.9680 8.3
5.9720 4.2
5.9760 0.0
5.9800 4.2
5.9840 4.2
5.9880 8.3
5.9920 0.0
5.9960 0.0
6.0000 12.5
