;Bundle             = 1
;Partition          = 1
;Operator           = 
;Gonio              = ATX-G
;Memo               = 
;IncidentMonochro   = ½Ø¯ÄºØÒ°¼®Ý
;CounterMonochro    = ŽóŒõ½Ø¯Ä
;Attachment         = XY-STAGE
;Filter             = 
;SlitName0          = S1 10*1
;SlitName1          = S2 2*0.05
;SlitName2          = ATT 
;SlitName3          = RS 2*0.1
;SlitName4          = GS nothing
;Counter            = SC-70
;KAlpha1            = 1.5403
;KAlpha2            = 1.5434
;KBata              = 0
;Target             = Cu
;KV                 = 50
;mA                 = 300
;AxisName           = 2Theta/Omega
;MeasurementMethod = Continuation
;Start              = 0.2
;Finish             = 6
;Speed              = 2
;FixedTime          = 
;Width              = 0.004
;FullScale         = 1e+06
;Comment            = 0.35
;SampleName         = 
;Xunit              = deg.
;Yunit              = CPS
0.2000 12773.5
0.2040 12440.5
0.2080 13244.6
0.2120 13578.1
0.2160 13955.5
0.2200 14977.8
0.2240 15733.9
0.2280 16724.5
0.2320 17890.2
0.2360 19943.7
0.2400 27486.4
0.2440 43726.2
0.2480 73849.6
0.2520 109394.2
0.2560 159408.1
0.2600 198975.8
0.2640 231584.3
0.2680 261938.8
0.2720 277123.8
0.2760 299271.6
0.2800 306317.8
0.2840 308031.5
0.2880 314893.1
0.2920 315872.0
0.2960 324480.4
0.3000 324923.4
0.3040 329651.9
0.3080 335595.1
0.3120 341253.8
0.3160 338137.9
0.3200 340137.3
0.3240 344284.0
0.3280 345253.2
0.3320 349110.4
0.3360 352954.1
0.3400 355760.3
0.3440 353043.6
0.3480 354848.9
0.3520 358388.2
0.3560 358385.4
0.3600 359302.5
0.3640 357234.8
0.3680 361326.2
0.3720 369826.2
0.3760 364269.5
0.3800 365154.4
0.3840 363886.9
0.3880 366254.4
0.3920 374587.0
0.3960 370840.6
0.4000 372056.1
0.4040 373652.3
0.4080 373989.1
0.4120 380111.8
0.4160 374354.9
0.4200 384154.9
0.4240 387509.3
0.4280 384051.2
0.4320 387010.7
0.4360 386997.0
0.4400 386479.3
0.4440 383804.4
0.4480 396627.0
0.4520 389580.2
0.4560 389897.0
0.4600 388111.7
0.4640 396134.1
0.4680 394948.9
0.4720 390210.9
0.4760 395692.6
0.4800 398668.3
0.4840 387882.2
0.4880 395449.4
0.4920 391110.9
0.4960 394273.1
0.5000 388834.7
0.5040 383839.0
0.5080 385149.8
0.5120 391868.5
0.5160 383614.3
0.5200 390018.0
0.5240 378926.6
0.5280 389066.5
0.5320 382993.4
0.5360 385259.6
0.5400 385045.4
0.5440 385819.4
0.5480 378509.0
0.5520 383431.2
0.5560 379847.2
0.5600 382292.1
0.5640 377925.5
0.5680 378659.9
0.5720 383283.5
0.5760 380576.5
0.5800 383518.9
0.5840 374019.6
0.5880 384981.0
0.5920 377723.5
0.5960 375208.0
0.6000 379469.1
0.6040 379893.5
0.6080 377287.7
0.6120 375993.1
0.6160 372767.4
0.6200 377631.2
0.6240 372517.1
0.6280 373894.4
0.6320 371771.9
0.6360 368667.1
0.6400 373412.1
0.6440 372325.0
0.6480 361528.7
0.6520 364092.2
0.6560 367662.0
0.6600 360293.1
0.6640 362412.4
0.6680 356736.5
0.6720 360816.0
0.6760 350183.4
0.6800 355747.3
0.6840 346731.3
0.6880 351326.3
0.6920 335403.9
0.6960 333211.6
0.7000 329399.2
0.7040 324320.5
0.7080 322728.9
0.7120 311896.2
0.7160 305014.3
0.7200 298583.0
0.7240 296755.4
0.7280 290401.0
0.7320 275927.3
0.7360 267845.8
0.7400 260693.6
0.7440 252777.3
0.7480 240452.7
0.7520 234719.9
0.7560 223342.3
0.7600 214515.7
0.7640 202030.0
0.7680 193841.2
0.7720 187212.3
0.7760 173301.3
0.7800 167259.6
0.7840 158072.0
0.7880 149927.6
0.7920 143720.8
0.7960 134407.2
0.8000 127952.0
0.8040 121509.0
0.8080 117717.6
0.8120 110018.0
0.8160 104427.8
0.8200 98637.0
0.8240 94047.6
0.8280 91248.2
0.8320 85692.2
0.8360 81501.9
0.8400 77738.0
0.8440 74091.0
0.8480 71178.3
0.8520 68161.6
0.8560 63481.6
0.8600 61908.2
0.8640 59769.2
0.8680 56586.0
0.8720 54729.0
0.8760 52567.7
0.8800 50450.7
0.8840 49152.2
0.8880 46178.6
0.8920 44348.8
0.8960 42239.9
0.9000 41044.1
0.9040 39677.2
0.9080 38560.4
0.9120 37061.7
0.9160 35799.8
0.9200 34377.6
0.9240 31919.4
0.9280 31622.0
0.9320 30846.1
0.9360 30505.7
0.9400 27956.0
0.9440 26400.9
0.9480 25742.9
0.9520 25187.1
0.9560 24135.0
0.9600 23329.4
0.9640 22293.2
0.9680 22396.8
0.9720 21107.8
0.9760 20897.7
0.9800 21003.9
0.9840 19700.1
0.9880 18554.5
0.9920 17873.5
0.9960 16405.4
1.0000 16362.0
1.0040 16206.5
1.0080 14787.3
1.0120 15372.5
1.0160 13458.3
1.0200 13672.7
1.0240 13192.4
1.0280 13475.2
1.0320 12876.5
1.0360 12910.3
1.0400 12687.3
1.0440 12012.2
1.0480 11995.3
1.0520 11518.6
1.0560 10324.6
1.0600 10639.8
1.0640 9652.9
1.0680 9372.2
1.0720 8557.4
1.0760 9177.1
1.0800 7871.2
1.0840 7355.4
1.0880 7871.3
1.0920 7964.3
1.0960 7837.0
1.1000 7549.6
1.1040 8073.9
1.1080 7380.8
1.1120 7608.8
1.1160 7676.1
1.1200 6535.0
1.1240 6273.2
1.1280 6070.8
1.1320 6146.6
1.1360 5421.6
1.1400 5160.6
1.1440 4899.4
1.1480 4613.3
1.1520 4554.2
1.1560 4344.2
1.1600 4680.6
1.1640 4790.1
1.1680 4815.2
1.1720 4470.4
1.1760 4537.6
1.1800 4848.7
1.1840 4277.0
1.1880 4293.7
1.1920 4192.8
1.1960 4083.6
1.2000 3504.2
1.2040 3705.5
1.2080 2715.8
1.2120 2849.9
1.2160 2724.2
1.2200 2481.2
1.2240 2431.0
1.2280 2439.3
1.2320 2213.3
1.2360 2389.2
1.2400 2606.9
1.2440 2665.5
1.2480 2875.0
1.2520 2757.7
1.2560 2565.0
1.2600 2908.7
1.2640 2950.6
1.2680 2598.7
1.2720 2154.7
1.2760 2188.2
1.2800 1937.2
1.2840 1803.4
1.2880 1703.0
1.2920 1377.0
1.2960 1059.5
1.3000 1126.3
1.3040 1092.9
1.3080 1368.6
1.3120 1310.1
1.3160 1427.1
1.3200 1510.6
1.3240 1368.6
1.3280 1836.7
1.3320 1744.8
1.3360 1694.6
1.3400 1619.4
1.3440 1443.8
1.3480 1335.2
1.3520 1184.8
1.3560 1209.8
1.3600 1042.8
1.3640 884.1
1.3680 633.7
1.3720 650.4
1.3760 491.9
1.3800 567.0
1.3840 683.8
1.3880 658.8
1.3920 825.7
1.3960 809.0
1.4000 700.5
1.4040 733.9
1.4080 950.9
1.4120 992.7
1.4160 925.9
1.4200 1076.2
1.4240 909.2
1.4280 859.1
1.4320 592.0
1.4360 792.3
1.4400 658.8
1.4440 325.1
1.4480 325.1
1.4520 358.5
1.4560 291.8
1.4600 191.7
1.4640 225.1
1.4680 258.4
1.4720 216.7
1.4760 325.1
1.4800 458.5
1.4840 416.8
1.4880 441.9
1.4920 525.3
1.4960 617.1
1.5000 625.4
1.5040 458.6
1.5080 500.3
1.5120 425.2
1.5160 550.3
1.5200 341.8
1.5240 233.4
1.5280 208.4
1.5320 116.7
1.5360 141.7
1.5400 83.3
1.5440 83.3
1.5480 108.3
1.5520 216.7
1.5560 175.0
1.5600 200.0
1.5640 158.4
1.5680 216.7
1.5720 183.4
1.5760 250.1
1.5800 283.4
1.5840 358.5
1.5880 400.2
1.5920 300.1
1.5960 283.4
1.6000 200.0
1.6040 133.4
1.6080 100.0
1.6120 100.0
1.6160 133.4
1.6200 91.7
1.6240 25.0
1.6280 33.3
1.6320 16.7
1.6360 91.7
1.6400 75.0
1.6440 83.3
1.6480 141.7
1.6520 175.0
1.6560 166.7
1.6600 175.0
1.6640 233.4
1.6680 225.1
1.6720 200.0
1.6760 175.0
1.6800 216.7
1.6840 175.0
1.6880 133.4
1.6920 108.3
1.6960 66.7
1.7000 75.0
1.7040 75.0
1.7080 108.3
1.7120 25.0
1.7160 25.0
1.7200 50.0
1.7240 108.3
1.7280 83.3
1.7320 66.7
1.7360 83.3
1.7400 75.0
1.7440 133.4
1.7480 58.3
1.7520 116.7
1.7560 133.4
1.7600 108.3
1.7640 141.7
1.7680 50.0
1.7720 58.3
1.7760 50.0
1.7800 66.7
1.7840 41.7
1.7880 33.3
1.7920 91.7
1.7960 41.7
1.8000 75.0
1.8040 75.0
1.8080 75.0
1.8120 158.4
1.8160 116.7
1.8200 41.7
1.8240 91.7
1.8280 41.7
1.8320 100.0
1.8360 100.0
1.8400 75.0
1.8440 66.7
1.8480 50.0
1.8520 58.3
1.8560 75.0
1.8600 91.7
1.8640 66.7
1.8680 108.3
1.8720 33.3
1.8760 75.0
1.8800 108.3
1.8840 108.3
1.8880 83.3
1.8920 116.7
1.8960 91.7
1.9000 158.4
1.9040 116.7
1.9080 125.0
1.9120 100.0
1.9160 116.7
1.9200 108.3
1.9240 100.0
1.9280 50.0
1.9320 91.7
1.9360 41.7
1.9400 66.7
1.9440 33.3
1.9480 58.3
1.9520 25.0
1.9560 50.0
1.9600 66.7
1.9640 158.4
1.9680 91.7
1.9720 141.7
1.9760 141.7
1.9800 250.1
1.9840 241.7
1.9880 166.7
1.9920 108.3
1.9960 133.4
2.0000 183.4
2.0040 75.0
2.0080 83.3
2.0120 75.0
2.0160 33.3
2.0200 16.7
2.0240 33.3
2.0280 8.3
2.0320 33.3
2.0360 41.7
2.0400 66.7
2.0440 25.0
2.0480 50.0
2.0520 150.0
2.0560 75.0
2.0600 141.7
2.0640 150.0
2.0680 183.4
2.0720 200.0
2.0760 133.4
2.0800 166.7
2.0840 166.7
2.0880 225.1
2.0920 175.0
2.0960 133.4
2.1000 83.3
2.1040 75.0
2.1080 41.7
2.1120 58.3
2.1160 41.7
2.1200 33.3
2.1240 16.7
2.1280 25.0
2.1320 41.7
2.1360 66.7
2.1400 50.0
2.1440 58.3
2.1480 158.4
2.1520 183.4
2.1560 191.7
2.1600 216.7
2.1640 225.1
2.1680 216.7
2.1720 166.7
2.1760 191.7
2.1800 141.7
2.1840 216.7
2.1880 116.7
2.1920 108.3
2.1960 66.7
2.2000 100.0
2.2040 58.3
2.2080 25.0
2.2120 16.7
2.2160 25.0
2.2200 83.3
2.2240 33.3
2.2280 75.0
2.2320 91.7
2.2360 58.3
2.2400 125.0
2.2440 175.0
2.2480 191.7
2.2520 200.0
2.2560 225.1
2.2600 216.7
2.2640 200.0
2.2680 158.4
2.2720 150.0
2.2760 108.3
2.2800 83.3
2.2840 33.3
2.2880 108.3
2.2920 41.7
2.2960 33.3
2.3000 41.7
2.3040 16.7
2.3080 66.7
2.3120 66.7
2.3160 83.3
2.3200 91.7
2.3240 50.0
2.3280 133.4
2.3320 125.0
2.3360 200.0
2.3400 141.7
2.3440 108.3
2.3480 233.4
2.3520 216.7
2.3560 291.8
2.3600 200.0
2.3640 216.7
2.3680 141.7
2.3720 158.4
2.3760 41.7
2.3800 116.7
2.3840 91.7
2.3880 66.7
2.3920 33.3
2.3960 33.3
2.4000 16.7
2.4040 41.7
2.4080 83.3
2.4120 58.3
2.4160 125.0
2.4200 66.7
2.4240 175.0
2.4280 200.0
2.4320 233.4
2.4360 241.7
2.4400 258.4
2.4440 150.0
2.4480 225.1
2.4520 191.7
2.4560 233.4
2.4600 208.4
2.4640 125.0
2.4680 50.0
2.4720 91.7
2.4760 66.7
2.4800 50.0
2.4840 58.3
2.4880 41.7
2.4920 58.3
2.4960 66.7
2.5000 83.3
2.5040 58.3
2.5080 66.7
2.5120 100.0
2.5160 191.7
2.5200 225.1
2.5240 208.4
2.5280 183.4
2.5320 241.7
2.5360 183.4
2.5400 166.7
2.5440 191.7
2.5480 158.4
2.5520 158.4
2.5560 133.4
2.5600 141.7
2.5640 141.7
2.5680 66.7
2.5720 50.0
2.5760 16.7
2.5800 66.7
2.5840 25.0
2.5880 33.3
2.5920 50.0
2.5960 50.0
2.6000 58.3
2.6040 100.0
2.6080 125.0
2.6120 166.7
2.6160 116.7
2.6200 183.4
2.6240 175.0
2.6280 216.7
2.6320 175.0
2.6360 216.7
2.6400 158.4
2.6440 183.4
2.6480 141.7
2.6520 125.0
2.6560 100.0
2.6600 83.3
2.6640 66.7
2.6680 41.7
2.6720 58.3
2.6760 50.0
2.6800 25.0
2.6840 41.7
2.6880 58.3
2.6920 141.7
2.6960 150.0
2.7000 141.7
2.7040 158.4
2.7080 175.0
2.7120 166.7
2.7160 166.7
2.7200 175.0
2.7240 141.7
2.7280 225.1
2.7320 175.0
2.7360 191.7
2.7400 125.0
2.7440 83.3
2.7480 83.3
2.7520 100.0
2.7560 91.7
2.7600 83.3
2.7640 50.0
2.7680 25.0
2.7720 25.0
2.7760 33.3
2.7800 66.7
2.7840 91.7
2.7880 116.7
2.7920 75.0
2.7960 175.0
2.8000 58.3
2.8040 166.7
2.8080 158.4
2.8120 200.0
2.8160 183.4
2.8200 141.7
2.8240 258.4
2.8280 175.0
2.8320 291.8
2.8360 175.0
2.8400 125.0
2.8440 50.0
2.8480 125.0
2.8520 66.7
2.8560 33.3
2.8600 16.7
2.8640 33.3
2.8680 25.0
2.8720 58.3
2.8760 41.7
2.8800 100.0
2.8840 91.7
2.8880 166.7
2.8920 108.3
2.8960 158.4
2.9000 225.1
2.9040 208.4
2.9080 200.0
2.9120 133.4
2.9160 116.7
2.9200 175.0
2.9240 116.7
2.9280 141.7
2.9320 116.7
2.9360 133.4
2.9400 75.0
2.9440 66.7
2.9480 83.3
2.9520 66.7
2.9560 41.7
2.9600 58.3
2.9640 66.7
2.9680 91.7
2.9720 58.3
2.9760 108.3
2.9800 116.7
2.9840 166.7
2.9880 166.7
2.9920 166.7
2.9960 91.7
3.0000 183.4
3.0040 175.0
3.0080 150.0
3.0120 100.0
3.0160 141.7
3.0200 133.4
3.0240 108.3
3.0280 125.0
3.0320 91.7
3.0360 75.0
3.0400 75.0
3.0440 50.0
3.0480 50.0
3.0520 16.7
3.0560 66.7
3.0600 58.3
3.0640 66.7
3.0680 75.0
3.0720 100.0
3.0760 91.7
3.0800 83.3
3.0840 175.0
3.0880 166.7
3.0920 125.0
3.0960 158.4
3.1000 158.4
3.1040 108.3
3.1080 175.0
3.1120 191.7
3.1160 125.0
3.1200 208.4
3.1240 108.3
3.1280 75.0
3.1320 75.0
3.1360 75.0
3.1400 41.7
3.1440 25.0
3.1480 25.0
3.1520 25.0
3.1560 66.7
3.1600 50.0
3.1640 75.0
3.1680 58.3
3.1720 208.4
3.1760 108.3
3.1800 150.0
3.1840 133.4
3.1880 150.0
3.1920 208.4
3.1960 100.0
3.2000 158.4
3.2040 133.4
3.2080 150.0
3.2120 108.3
3.2160 91.7
3.2200 50.0
3.2240 66.7
3.2280 41.7
3.2320 66.7
3.2360 50.0
3.2400 50.0
3.2440 16.7
3.2480 33.3
3.2520 41.7
3.2560 75.0
3.2600 100.0
3.2640 133.4
3.2680 100.0
3.2720 83.3
3.2760 158.4
3.2800 158.4
3.2840 191.7
3.2880 175.0
3.2920 191.7
3.2960 116.7
3.3000 75.0
3.3040 150.0
3.3080 108.3
3.3120 66.7
3.3160 116.7
3.3200 75.0
3.3240 108.3
3.3280 16.7
3.3320 75.0
3.3360 16.7
3.3400 8.3
3.3440 50.0
3.3480 66.7
3.3520 83.3
3.3560 33.3
3.3600 108.3
3.3640 91.7
3.3680 150.0
3.3720 100.0
3.3760 58.3
3.3800 191.7
3.3840 83.3
3.3880 108.3
3.3920 83.3
3.3960 150.0
3.4000 91.7
3.4040 66.7
3.4080 91.7
3.4120 25.0
3.4160 58.3
3.4200 66.7
3.4240 33.3
3.4280 50.0
3.4320 58.3
3.4360 33.3
3.4400 66.7
3.4440 58.3
3.4480 50.0
3.4520 83.3
3.4560 66.7
3.4600 150.0
3.4640 158.4
3.4680 133.4
3.4720 116.7
3.4760 66.7
3.4800 125.0
3.4840 166.7
3.4880 150.0
3.4920 166.7
3.4960 91.7
3.5000 125.0
3.5040 91.7
3.5080 83.3
3.5120 50.0
3.5160 41.7
3.5200 50.0
3.5240 33.3
3.5280 41.7
3.5320 41.7
3.5360 66.7
3.5400 41.7
3.5440 83.3
3.5480 75.0
3.5520 175.0
3.5560 100.0
3.5600 100.0
3.5640 75.0
3.5680 125.0
3.5720 108.3
3.5760 58.3
3.5800 166.7
3.5840 75.0
3.5880 91.7
3.5920 83.3
3.5960 108.3
3.6000 41.7
3.6040 41.7
3.6080 41.7
3.6120 50.0
3.6160 50.0
3.6200 25.0
3.6240 25.0
3.6280 41.7
3.6320 41.7
3.6360 83.3
3.6400 83.3
3.6440 58.3
3.6480 75.0
3.6520 125.0
3.6560 75.0
3.6600 125.0
3.6640 166.7
3.6680 141.7
3.6720 83.3
3.6760 108.3
3.6800 125.0
3.6840 75.0
3.6880 66.7
3.6920 66.7
3.6960 16.7
3.7000 25.0
3.7040 75.0
3.7080 25.0
3.7120 50.0
3.7160 66.7
3.7200 83.3
3.7240 75.0
3.7280 25.0
3.7320 8.3
3.7360 50.0
3.7400 58.3
3.7440 50.0
3.7480 116.7
3.7520 66.7
3.7560 100.0
3.7600 91.7
3.7640 100.0
3.7680 108.3
3.7720 75.0
3.7760 83.3
3.7800 133.4
3.7840 108.3
3.7880 50.0
3.7920 50.0
3.7960 41.7
3.8000 50.0
3.8040 41.7
3.8080 8.3
3.8120 33.3
3.8160 50.0
3.8200 16.7
3.8240 16.7
3.8280 50.0
3.8320 33.3
3.8360 58.3
3.8400 58.3
3.8440 66.7
3.8480 75.0
3.8520 75.0
3.8560 58.3
3.8600 91.7
3.8640 75.0
3.8680 83.3
3.8720 50.0
3.8760 83.3
3.8800 100.0
3.8840 75.0
3.8880 25.0
3.8920 33.3
3.8960 33.3
3.9000 50.0
3.9040 25.0
3.9080 25.0
3.9120 16.7
3.9160 41.7
3.9200 16.7
3.9240 33.3
3.9280 50.0
3.9320 33.3
3.9360 58.3
3.9400 58.3
3.9440 66.7
3.9480 58.3
3.9520 58.3
3.9560 50.0
3.9600 41.7
3.9640 58.3
3.9680 50.0
3.9720 25.0
3.9760 33.3
3.9800 41.7
3.9840 25.0
3.9880 8.3
3.9920 16.7
3.9960 50.0
4.0000 16.7
4.0040 16.7
4.0080 16.7
4.0120 25.0
4.0160 25.0
4.0200 33.3
4.0240 50.0
4.0280 33.3
4.0320 41.7
4.0360 33.3
4.0400 58.3
4.0440 58.3
4.0480 83.3
4.0520 41.7
4.0560 25.0
4.0600 66.7
4.0640 8.3
4.0680 16.7
4.0720 25.0
4.0760 8.3
4.0800 16.7
4.0840 16.7
4.0880 8.3
4.0920 33.3
4.0960 8.3
4.1000 25.0
4.1040 16.7
4.1080 8.3
4.1120 8.3
4.1160 16.7
4.1200 58.3
4.1240 41.7
4.1280 50.0
4.1320 75.0
4.1360 25.0
4.1400 16.7
4.1440 16.7
4.1480 58.3
4.1520 58.3
4.1560 16.7
4.1600 16.7
4.1640 25.0
4.1680 16.7
4.1720 0.0
4.1760 8.3
4.1800 16.7
4.1840 8.3
4.1880 8.3
4.1920 16.7
4.1960 0.0
4.2000 41.7
4.2040 25.0
4.2080 25.0
4.2120 41.7
4.2160 33.3
4.2200 25.0
4.2240 25.0
4.2280 0.0
4.2320 25.0
4.2360 25.0
4.2400 33.3
4.2440 8.3
4.2480 0.0
4.2520 33.3
4.2560 8.3
4.2600 25.0
4.2640 16.7
4.2680 0.0
4.2720 16.7
4.2760 25.0
4.2800 0.0
4.2840 0.0
4.2880 0.0
4.2920 8.3
4.2960 16.7
4.3000 0.0
4.3040 0.0
4.3080 33.3
4.3120 33.3
4.3160 25.0
4.3200 8.3
4.3240 16.7
4.3280 25.0
4.3320 25.0
4.3360 8.3
4.3400 25.0
4.3440 16.7
4.3480 0.0
4.3520 8.3
4.3560 0.0
4.3600 8.3
4.3640 16.7
4.3680 16.7
4.3720 8.3
4.3760 16.7
4.3800 8.3
4.3840 25.0
4.3880 16.7
4.3920 25.0
4.3960 8.3
4.4000 16.7
4.4040 16.7
4.4080 50.0
4.4120 16.7
4.4160 0.0
4.4200 8.3
4.4240 25.0
4.4280 8.3
4.4320 8.3
4.4360 0.0
4.4400 8.3
4.4440 25.0
4.4480 8.3
4.4520 8.3
4.4560 0.0
4.4600 8.3
4.4640 8.3
4.4680 8.3
4.4720 8.3
4.4760 0.0
4.4800 16.7
4.4840 8.3
4.4880 8.3
4.4920 0.0
4.4960 16.7
4.5000 8.3
4.5040 0.0
4.5080 8.3
4.5120 8.3
4.5160 8.3
4.5200 16.7
4.5240 16.7
4.5280 16.7
4.5320 16.7
4.5360 0.0
4.5400 0.0
4.5440 8.3
4.5480 8.3
4.5520 0.0
4.5560 8.3
4.5600 16.7
4.5640 0.0
4.5680 8.3
4.5720 0.0
4.5760 8.3
4.5800 0.0
4.5840 8.3
4.5880 8.3
4.5920 0.0
4.5960 8.3
4.6000 8.3
4.6040 8.3
4.6080 16.7
4.6120 0.0
4.6160 0.0
4.6200 8.3
4.6240 8.3
4.6280 8.3
4.6320 8.3
4.6360 8.3
4.6400 8.3
4.6440 0.0
4.6480 0.0
4.6520 0.0
4.6560 0.0
4.6600 0.0
4.6640 8.3
4.6680 0.0
4.6720 8.3
4.6760 8.3
4.6800 16.7
4.6840 0.0
4.6880 16.7
4.6920 0.0
4.6960 8.3
4.7000 0.0
4.7040 16.7
4.7080 8.3
4.7120 16.7
4.7160 8.3
4.7200 0.0
4.7240 8.3
4.7280 8.3
4.7320 8.3
4.7360 0.0
4.7400 0.0
4.7440 0.0
4.7480 0.0
4.7520 0.0
4.7560 0.0
4.7600 16.7
4.7640 0.0
4.7680 0.0
4.7720 8.3
4.7760 0.0
4.7800 8.3
4.7840 16.7
4.7880 0.0
4.7920 0.0
4.7960 8.3
4.8000 0.0
4.8040 8.3
4.8080 8.3
4.8120 8.3
4.8160 0.0
4.8200 0.0
4.8240 16.7
4.8280 8.3
4.8320 0.0
4.8360 8.3
4.8400 8.3
4.8440 0.0
4.8480 0.0
4.8520 0.0
4.8560 0.0
4.8600 0.0
4.8640 0.0
4.8680 8.3
4.8720 8.3
4.8760 0.0
4.8800 0.0
4.8840 8.3
4.8880 8.3
4.8920 0.0
4.8960 0.0
4.9000 8.3
4.9040 8.3
4.9080 0.0
4.9120 0.0
4.9160 0.0
4.9200 8.3
4.9240 0.0
4.9280 16.7
4.9320 0.0
4.9360 0.0
4.9400 8.3
4.9440 8.3
4.9480 0.0
4.9520 0.0
4.9560 8.3
4.9600 0.0
4.9640 0.0
4.9680 0.0
4.9720 8.3
4.9760 8.3
4.9800 8.3
4.9840 0.0
4.9880 0.0
4.9920 0.0
4.9960 0.0
5.0000 0.0
5.0040 8.3
5.0080 0.0
5.0120 8.3
5.0160 0.0
5.0200 0.0
5.0240 0.0
5.0280 8.3
5.0320 8.3
5.0360 8.3
5.0400 0.0
5.0440 0.0
5.0480 0.0
5.0520 0.0
5.0560 0.0
5.0600 0.0
5.0640 0.0
5.0680 8.3
5.0720 0.0
5.0760 0.0
5.0800 0.0
5.0840 8.3
5.0880 0.0
5.0920 8.3
5.0960 0.0
5.1000 0.0
5.1040 0.0
5.1080 0.0
5.1120 0.0
5.1160 8.3
5.1200 0.0
5.1240 0.0
5.1280 0.0
5.1320 0.0
5.1360 0.0
5.1400 8.3
5.1440 0.0
5.1480 8.3
5.1520 0.0
5.1560 0.0
5.1600 0.0
5.1640 0.0
5.1680 0.0
5.1720 0.0
5.1760 0.0
5.1800 0.0
5.1840 0.0
5.1880 8.3
5.1920 0.0
5.1960 0.0
5.2000 0.0
5.2040 0.0
5.2080 0.0
5.2120 0.0
5.2160 8.3
5.2200 8.3
5.2240 0.0
5.2280 8.3
5.2320 0.0
5.2360 0.0
5.2400 0.0
5.2440 0.0
5.2480 0.0
5.2520 0.0
5.2560 8.3
5.2600 8.3
5.2640 0.0
5.2680 0.0
5.2720 0.0
5.2760 0.0
5.2800 0.0
5.2840 0.0
5.2880 0.0
5.2920 0.0
5.2960 8.3
5.3000 8.3
5.3040 8.3
5.3080 8.3
5.3120 8.3
5.3160 0.0
5.3200 8.3
5.3240 0.0
5.3280 0.0
5.3320 16.7
5.3360 8.3
5.3400 0.0
5.3440 0.0
5.3480 8.3
5.3520 0.0
5.3560 0.0
5.3600 0.0
5.3640 0.0
5.3680 8.3
5.3720 0.0
5.3760 0.0
5.3800 0.0
5.3840 0.0
5.3880 0.0
5.3920 8.3
5.3960 0.0
5.4000 8.3
5.4040 0.0
5.4080 0.0
5.4120 16.7
5.4160 0.0
5.4200 8.3
5.4240 0.0
5.4280 8.3
5.4320 0.0
5.4360 0.0
5.4400 0.0
5.4440 8.3
5.4480 0.0
5.4520 0.0
5.4560 0.0
5.4600 8.3
5.4640 0.0
5.4680 0.0
5.4720 8.3
5.4760 0.0
5.4800 8.3
5.4840 0.0
5.4880 8.3
5.4920 0.0
5.4960 0.0
5.5000 0.0
5.5040 0.0
5.5080 0.0
5.5120 8.3
5.5160 8.3
5.5200 8.3
5.5240 0.0
5.5280 8.3
5.5320 0.0
5.5360 8.3
5.5400 0.0
5.5440 0.0
5.5480 0.0
5.5520 0.0
5.5560 0.0
5.5600 8.3
5.5640 8.3
5.5680 0.0
5.5720 0.0
5.5760 0.0
5.5800 0.0
5.5840 8.3
5.5880 0.0
5.5920 0.0
5.5960 0.0
5.6000 8.3
5.6040 0.0
5.6080 8.3
5.6120 0.0
5.6160 8.3
5.6200 0.0
5.6240 8.3
5.6280 0.0
5.6320 0.0
5.6360 8.3
5.6400 0.0
5.6440 0.0
5.6480 0.0
5.6520 8.3
5.6560 0.0
5.6600 8.3
5.6640 0.0
5.6680 0.0
5.6720 0.0
5.6760 8.3
5.6800 8.3
5.6840 0.0
5.6880 0.0
5.6920 0.0
5.6960 0.0
5.7000 8.3
5.7040 0.0
5.7080 0.0
5.7120 0.0
5.7160 0.0
5.7200 8.3
5.7240 0.0
5.7280 8.3
5.7320 0.0
5.7360 0.0
5.7400 0.0
5.7440 0.0
5.7480 8.3
5.7520 8.3
5.7560 0.0
5.7600 8.3
5.7640 0.0
5.7680 0.0
5.7720 0.0
5.7760 16.7
5.7800 0.0
5.7840 0.0
5.7880 0.0
5.7920 0.0
5.7960 8.3
5.8000 0.0
5.8040 0.0
5.8080 0.0
5.8120 0.0
5.8160 0.0
5.8200 0.0
5.8240 0.0
5.8280 8.3
5.8320 0.0
5.8360 8.3
5.8400 0.0
5.8440 0.0
5.8480 0.0
5.8520 0.0
5.8560 0.0
5.8600 8.3
5.8640 0.0
5.8680 0.0
5.8720 0.0
5.8760 8.3
5.8800 8.3
5.8840 8.3
5.8880 0.0
5.8920 8.3
5.8960 0.0
5.9000 0.0
5.9040 0.0
5.9080 0.0
5.9120 0.0
5.9160 8.3
5.9200 0.0
5.9240 0.0
5.9280 0.0
5.9320 8.3
5.9360 0.0
5.9400 8.3
5.9440 8.3
5.9480 0.0
5.9520 0.0
5.9560 0.0
5.9600 0.0
5.9640 0.0
5.9680 8.3
5.9720 0.0
5.9760 0.0
5.9800 0.0
5.9840 8.3
5.9880 8.3
5.9920 16.7
5.9960 0.0
6.0000 0.0
